AF3,F7,F3,FC5,T7,P7,O1,O2,P8,T8,FC6,F4,F8,AF4
4100.25641,4097.820512,3948.461538,4162.692307,4107.820513,4118.589743,4107.435897,4116.282051,4110.384615,4123.333333,4122.435897,4117.307692,4120.128205,4129.615384
4090,4089.487179,3940.128205,4148.076923,4092.179487,4093.461538,4081.025641,4101.538461,4100.51282,4115.769231,4122.564102,4112.307692,4114.615384,4127.179487
4088.205128,4093.846154,3940.25641,4138.076923,4091.410256,4092.435897,4081.666666,4107.179487,4105.25641,4114.230769,4119.615384,4109.230769,4114.615384,4131.666666
4106.025641,4107.051282,3953.076922,4141.153846,4113.974359,4126.410256,4115,4124.871795,4115,4127.307692,4120.897436,4117.435897,4124.871795,4131.923077
4119.743589,4115.25641,3964.871794,4138.846154,4123.589743,4136.538461,4126.025641,4128.333333,4114.871795,4133.974359,4130.384615,4124.871795,4127.435897,4125.384615
4116.410256,4114.743589,3973.461538,4126.025641,4110.897436,4115.769231,4114.358974,4122.820513,4110,4129.102564,4136.282051,4127.179487,4124.487179,4126.923077
4113.076923,4104.615384,3976.794871,4116.153846,4101.923077,4108.076923,4111.410256,4123.589743,4106.923077,4123.076923,4128.333333,4130.25641,4125.128205,4127.307692
4117.820513,4096.282051,3974.871794,4110.25641,4101.538461,4117.051282,4117.435897,4133.333333,4109.358974,4122.307692,4120.641025,4130.384615,4125.769231,4127.051282
4124.487179,4106.538461,3980.641025,4111.923077,4106.025641,4119.230769,4124.102564,4138.076923,4112.307692,4123.205128,4131.410256,4131.923077,4127.051282,4127.692307
4136.923077,4126.666666,3998.717948,4125,4116.923077,4120.128205,4128.076923,4134.487179,4110.897436,4125.897436,4152.051282,4143.076923,4137.948718,4127.179487
4144.615384,4131.538461,4006.025641,4126.923077,4118.717948,4126.538461,4125.51282,4134.358974,4108.717948,4127.435897,4154.358974,4148.589743,4143.717949,4125.897436
4127.692307,4115.641025,3987.179487,4109.358974,4102.692307,4118.717948,4113.461538,4125.128205,4102.564102,4117.564102,4136.666666,4128.076923,4127.435897,4124.743589
4114.487179,4111.538461,3975.25641,4106.794872,4098.717948,4110.897436,4109.487179,4117.307692,4099.102564,4113.205128,4131.794872,4112.820513,4120.384615,4126.666666
4127.692307,4130.128205,3990.128205,4121.666666,4116.666666,4122.948718,4117.179487,4130.128205,4110.769231,4133.333333,4147.692307,4128.846154,4137.051282,4126.153846
4122.179487,4127.820513,3987.948717,4112.564102,4114.743589,4118.461538,4106.794872,4127.179487,4112.564102,4143.076923,4141.666666,4127.820513,4134.871795,4125.128205
4101.410256,4113.717948,3964.487179,4096.025641,4102.179487,4105.384615,4090.76923,4105.641025,4097.820512,4128.974359,4119.743589,4104.487179,4115,4128.974359
4107.435897,4124.743589,3964.743589,4108.205128,4116.538461,4118.846154,4105.384615,4112.692307,4103.333333,4132.564102,4126.025641,4106.666666,4118.717948,4129.615384
4121.282051,4138.589743,3980.384615,4121.282051,4131.666666,4128.589743,4119.871795,4135.25641,4125.769231,4155.384615,4145.769231,4122.692307,4137.051282,4128.076923
4120.897436,4134.871795,3978.461538,4115.51282,4123.461538,4116.282051,4108.974359,4129.743589,4124.487179,4160,4149.102564,4119.487179,4141.538461,4126.794872
4115.384615,4127.179487,3966.923076,4112.307692,4115.51282,4111.025641,4102.564102,4115.25641,4105.384615,4144.487179,4143.205128,4106.666666,4131.538461,4125
4112.820513,4125,3968.333333,4118.717948,4117.179487,4120.641025,4115.384615,4120.384615,4100.897436,4136.666666,4146.666666,4106.153846,4125.51282,4126.282051
4111.410256,4121.410256,3975.76923,4119.615384,4110.384615,4120.25641,4120,4124.358974,4107.435897,4137.564102,4149.615384,4111.538461,4127.051282,4127.435897
4115.641025,4121.025641,3978.589743,4117.948718,4103.974359,4113.333333,4113.974359,4126.410256,4110,4138.717949,4146.538461,4115.769231,4130.51282,4127.692307
4122.051282,4125.769231,3977.948717,4120.25641,4107.564102,4115,4118.974359,4138.846154,4110.25641,4138.076923,4145.25641,4118.461538,4132.948718,4128.076923
4118.205128,4125.641025,3974.615384,4116.153846,4107.051282,4120.641025,4126.153846,4140.128205,4108.589743,4131.538461,4138.076923,4115.641025,4129.102564,4128.974359
4119.102564,4130.641025,3978.333333,4116.923077,4108.076923,4126.282051,4128.589743,4134.615384,4110,4131.923077,4135.25641,4117.307692,4131.538461,4129.743589
4134.230769,4144.487179,3992.948717,4129.102564,4118.717948,4132.051282,4136.153846,4143.974359,4119.102564,4148.076923,4147.435897,4133.076923,4143.846154,4128.333333
4133.333333,4141.794872,3995.76923,4127.051282,4120.128205,4130.641025,4131.538461,4142.051282,4117.820513,4150.128205,4150.25641,4139.230769,4142.179487,4127.307692
4121.794872,4129.102564,3992.564102,4114.230769,4114.615384,4124.871795,4121.025641,4131.153846,4110.51282,4143.974359,4145.128205,4131.923077,4136.923077,4127.307692
4139.74359,4143.717949,4012.307692,4121.538461,4131.025641,4132.179487,4133.717948,4145.641025,4121.282051,4168.205128,4167.820513,4141.538461,4157.948718,4127.948718
4149.358974,4152.179487,4018.846153,4119.358974,4139.230769,4136.410256,4136.666666,4145.128205,4123.461538,4177.820513,4178.717949,4145.25641,4163.846154,4128.717948
4121.538461,4128.333333,3990.128205,4086.666666,4120.769231,4126.282051,4116.794872,4123.076923,4108.333333,4147.692307,4145.769231,4122.820513,4135,4128.589743
4107.179487,4120.384615,3974.999999,4070.384615,4118.076923,4126.410256,4117.820513,4121.923077,4104.615384,4135,4128.974359,4111.282051,4121.666666,4127.820513
4113.333333,4130.769231,3979.871794,4073.974359,4130.384615,4136.666666,4130.641025,4126.025641,4107.820513,4142.564102,4142.307692,4116.666666,4127.948718,4127.820513
4108.205128,4123.846154,3973.461538,4060.76923,4126.025641,4134.230769,4120.51282,4118.461538,4103.205128,4134.230769,4143.846154,4112.692307,4123.717948,4127.564102
4097.564102,4103.333333,3960.76923,4038.333333,4110.641025,4118.461538,4101.538461,4109.358974,4094.358974,4119.358974,4130,4099.358974,4113.717948,4129.615384
4095.51282,4095.51282,3962.307692,4032.820512,4107.307692,4111.153846,4094.102564,4105.51282,4090.128205,4118.205128,4125.769231,4093.974359,4110.897436,4129.102564
4104.102564,4108.205128,3976.923076,4039.743589,4115.25641,4118.974359,4102.948718,4116.025641,4102.820513,4129.871795,4140.769231,4102.820513,4117.307692,4125
4113.461538,4120.51282,3983.461538,4039.615384,4120.25641,4120.897436,4114.615384,4128.461538,4114.615384,4140.769231,4151.923077,4108.461538,4122.051282,4126.410256
4108.076923,4113.076923,3973.589743,4028.717948,4115.384615,4109.102564,4107.564102,4120.769231,4104.102564,4136.410256,4142.820513,4098.846154,4116.153846,4126.282051
4099.615384,4103.589743,3966.923076,4015.384615,4106.538461,4107.564102,4098.333333,4111.153846,4094.102564,4129.358974,4128.846154,4093.589743,4109.871795,4123.846154
4099.230769,4106.282051,3970.384615,4005.76923,4102.307692,4112.820513,4098.333333,4109.743589,4094.358974,4130.769231,4131.410256,4099.871795,4112.435897,4126.025641
4101.538461,4110.25641,3978.076923,4002.948717,4102.179487,4106.794872,4092.051282,4103.205128,4093.076923,4136.410256,4147.051282,4106.410256,4120.769231,4126.794872
4100.384615,4108.846154,3975.641025,3995.76923,4103.333333,4101.666666,4083.589743,4096.666666,4089.615384,4132.948718,4147.051282,4102.307692,4121.025641,4127.051282
4087.307692,4102.564102,3959.358974,3979.743589,4099.743589,4102.948718,4083.974359,4093.333333,4082.051282,4117.564102,4128.076923,4088.333333,4110.51282,4126.538461
4080,4102.179487,3961.794871,3977.307692,4099.102564,4103.461538,4088.974359,4094.358974,4080.384615,4116.923077,4129.358974,4088.461538,4110.128205,4128.333333
4099.871795,4113.974359,3991.153846,3989.999999,4113.205128,4115.128205,4102.692307,4109.743589,4098.205128,4137.948718,4159.102564,4109.615384,4127.692307,4129.615384
4119.743589,4116.153846,4006.794871,3982.051282,4121.538461,4133.717948,4125.384615,4129.487179,4114.487179,4150.641025,4177.307692,4125.641025,4140.384615,4125.128205
4114.230769,4102.692307,3996.794871,3957.948717,4107.564102,4131.538461,4131.794872,4138.461538,4112.179487,4145.641025,4179.358974,4127.948718,4142.564102,4127.051282
4108.846154,4097.435897,3991.538461,3946.538461,4095,4117.179487,4118.076923,4135.897436,4106.794872,4142.307692,4184.74359,4127.051282,4144.74359,4128.974359
4118.717948,4106.538461,3996.794871,3941.02564,4097.820512,4122.051282,4119.487179,4134.615384,4109.230769,4143.333333,4185.641026,4120.897436,4143.974359,4127.564102
4124.102564,4112.692307,3998.461538,3938.461538,4103.717948,4130.51282,4131.410256,4141.538461,4115,4145.51282,4182.948718,4116.794872,4141.923077,4129.871795
4119.743589,4109.230769,3997.564102,3941.923076,4108.461538,4123.333333,4126.153846,4139.230769,4111.538461,4148.589743,4182.948718,4118.205128,4142.051282,4126.538461
4119.487179,4105,3996.794871,3939.999999,4111.282051,4124.615384,4122.051282,4134.102564,4107.948718,4148.589743,4178.333333,4110.769231,4141.538461,4124.358974
4117.948718,4099.230769,3990.128205,3928.974358,4102.820513,4125.641025,4118.846154,4129.487179,4110,4146.025641,4167.179487,4098.846154,4134.871795,4128.717948
4117.051282,4102.179487,3985.897435,3927.179486,4102.948718,4116.666666,4111.153846,4124.358974,4107.820513,4145.25641,4167.564102,4102.051282,4132.948718,4129.358974
4127.564102,4120.384615,3998.333333,3936.410256,4122.179487,4127.948718,4127.820513,4134.871795,4111.538461,4156.282051,4186.538461,4116.794872,4148.333333,4126.538461
4132.692307,4125.51282,4006.538461,3937.051281,4126.410256,4140.641025,4144.230769,4153.974359,4128.974359,4173.205128,4199.74359,4119.871795,4158.333333,4125.51282
4115.769231,4105.384615,3989.743589,3926.666666,4106.025641,4123.846154,4125.25641,4144.102564,4127.435897,4168.717949,4185,4104.487179,4143.333333,4126.538461
4104.487179,4096.666666,3980.76923,3926.02564,4099.230769,4115.128205,4113.846154,4126.538461,4110.25641,4152.307692,4169.487179,4096.153846,4133.974359,4127.564102
4113.205128,4112.179487,3994.999999,3942.820512,4109.102564,4128.974359,4127.051282,4136.153846,4110.769231,4151.153846,4176.410256,4105,4141.666666,4126.282051
4117.435897,4118.974359,4001.666666,3953.333333,4108.205128,4130.51282,4129.102564,4143.974359,4120.128205,4154.230769,4182.179487,4109.230769,4141.410256,4125.384615
4114.743589,4113.461538,3995.25641,3951.666666,4106.666666,4127.051282,4126.538461,4139.615384,4118.589743,4149.615384,4176.538461,4103.846154,4136.282051,4125.25641
4120,4116.153846,3998.974358,3953.717948,4118.333333,4138.461538,4135.384615,4143.461538,4116.025641,4151.153846,4178.461538,4105.128205,4142.051282,4126.666666
4126.538461,4121.538461,4008.461538,3959.102563,4122.948718,4141.666666,4133.974359,4146.538461,4120,4161.153846,4187.179487,4111.282051,4150.128205,4128.589743
4119.102564,4114.615384,4000.51282,3952.435897,4112.564102,4128.974359,4122.692307,4135.897436,4116.153846,4162.179487,4176.153846,4102.820513,4144.487179,4126.410256
4120.769231,4113.333333,3995.641025,3947.692307,4114.230769,4128.461538,4126.923077,4138.717949,4115.641025,4160.641025,4166.025641,4098.974359,4141.153846,4125.897436
4138.589743,4133.333333,4016.153846,3962.179487,4131.923077,4138.076923,4138.076923,4153.974359,4126.538461,4172.179487,4183.974359,4113.974359,4150.769231,4125.897436
4142.820513,4147.051282,4033.974358,3975.25641,4138.589743,4142.564102,4142.692307,4155.128205,4126.666666,4183.717949,4200.641026,4123.461538,4157.179487,4125.384615
4135.51282,4141.410256,4030.384615,3970.641025,4129.358974,4139.615384,4141.923077,4153.076923,4119.230769,4183.333333,4198.846154,4121.153846,4155.384615,4126.666666
4134.358974,4139.230769,4025.897435,3961.923076,4123.461538,4132.820513,4137.564102,4154.74359,4119.871795,4177.435897,4191.923077,4117.948718,4151.538461,4126.153846
4132.051282,4140.384615,4023.846153,3958.974358,4120.51282,4125.25641,4130.384615,4149.74359,4121.538461,4170,4181.923077,4112.948718,4145.769231,4127.307692
4127.948718,4133.461538,4020.384615,3956.282051,4115.51282,4124.871795,4130.641025,4146.025641,4117.051282,4167.564102,4173.589743,4111.282051,4146.410256,4128.076923
4130,4128.205128,4022.307692,3954.358974,4116.025641,4135.641025,4143.205128,4152.564102,4116.282051,4169.74359,4173.974359,4113.461538,4152.564102,4124.871795
4132.307692,4130.25641,4021.410256,3956.02564,4115.769231,4139.358974,4150.769231,4156.025641,4117.307692,4165.641025,4171.794872,4112.820513,4148.461538,4123.846154
4138.589743,4139.102564,4022.179487,3964.487179,4111.153846,4131.666666,4144.358974,4151.282051,4114.358974,4154.871795,4167.948718,4114.102564,4143.846154,4125.51282
4140.384615,4145.641025,4025.384615,3972.307692,4103.974359,4121.282051,4128.974359,4141.666666,4106.410256,4142.435897,4162.564102,4110,4139.102564,4128.205128
4132.564102,4141.794872,4020.897435,3972.564102,4101.153846,4126.282051,4135.25641,4145.128205,4106.538461,4139.74359,4153.717949,4100.897436,4131.666666,4126.282051
4136.410256,4143.846154,4018.974358,3978.717948,4106.410256,4143.589743,4158.717949,4166.538461,4125,4152.051282,4160.384615,4104.487179,4139.358974,4124.102564
4141.153846,4148.589743,4021.282051,3988.205128,4113.333333,4146.025641,4157.692307,4171.794872,4131.153846,4161.923077,4172.948718,4107.564102,4148.205128,4132.564102
4129.358974,4138.461538,4013.205128,3992.179487,4115.25641,4135,4135.897436,4151.538461,4116.410256,4155.384615,4165.641025,4096.538461,4138.205128,4132.820513
4125.897436,4136.794872,4009.487179,4000.641025,4116.923077,4135.25641,4134.487179,4148.333333,4118.846154,4160.25641,4161.410256,4095.641025,4135.769231,4128.589743
4130.897436,4149.230769,4017.948717,4012.051282,4121.410256,4143.717949,4146.923077,4161.025641,4127.820513,4173.205128,4170.25641,4100.384615,4143.461538,4128.846154
4118.846154,4142.948718,4012.179487,4016.025641,4118.076923,4137.179487,4137.948718,4155.769231,4124.230769,4164.615384,4165.384615,4086.794871,4136.282051,4125.641025
4117.948718,4138.589743,4011.153846,4035.51282,4118.717948,4129.615384,4127.564102,4146.923077,4124.487179,4157.435897,4168.461538,4088.461538,4135.384615,4130
4134.358974,4153.717949,4030.641025,4070.897436,4127.692307,4135.25641,4132.435897,4143.589743,4125.51282,4168.076923,4189.74359,4114.615384,4149.102564,4130.769231
4124.615384,4144.102564,4026.025641,4079.102564,4115.51282,4125.25641,4114.615384,4125.641025,4110.769231,4157.179487,4180.769231,4108.717948,4139.358974,4125.769231
4109.615384,4120.897436,4007.307692,4077.307692,4096.025641,4108.846154,4096.666666,4112.948718,4104.358974,4132.948718,4157.435897,4085.128205,4119.102564,4129.743589
4120.384615,4125.897436,4014.102564,4097.179487,4098.076923,4118.846154,4118.461538,4128.974359,4116.282051,4134.871795,4160.25641,4095.128205,4121.794872,4128.846154
4122.948718,4132.820513,4020.76923,4110,4097.692307,4120.769231,4120.51282,4127.179487,4109.743589,4132.307692,4160.128205,4104.743589,4127.179487,4124.743589
4111.538461,4125,4012.307692,4109.615384,4087.435897,4104.871795,4098.461538,4111.794872,4100.76923,4116.410256,4146.923077,4092.435897,4123.333333,4125.25641
4098.333333,4113.717948,3993.846153,4106.410256,4081.153846,4101.923077,4103.205128,4118.461538,4109.487179,4107.948718,4130.897436,4074.230769,4110.384615,4127.051282
4081.923077,4103.589743,3974.230769,4099.487179,4075.641025,4105.641025,4108.589743,4121.410256,4107.307692,4093.717948,4111.153846,4059.487179,4094.487179,4130.641025
4078.589743,4100.51282,3973.589743,4105,4073.846154,4098.974359,4094.230769,4111.923077,4097.179487,4079.102564,4106.025641,4056.282051,4089.615384,4124.743589
4079.230769,4099.871795,3976.666666,4112.179487,4072.051282,4090.128205,4089.743589,4109.615384,4101.410256,4076.538461,4107.435897,4052.564102,4089.102564,4122.692307
4079.615384,4105.897436,3978.846153,4113.717948,4076.282051,4101.923077,4108.974359,4125.51282,4119.358974,4090.897436,4112.564102,4049.358974,4097.692307,4128.076923
4093.205128,4124.230769,3989.230769,4126.282051,4089.487179,4115.25641,4117.948718,4139.615384,4132.307692,4113.974359,4132.820513,4059.615384,4113.589743,4122.564102
4096.282051,4127.820513,3986.02564,4126.410256,4086.025641,4103.717948,4103.333333,4131.538461,4130.769231,4115.384615,4130.384615,4064.615384,4110.25641,4122.948718
4068.717948,4103.333333,3956.923076,4096.410256,4058.076923,4082.051282,4082.564102,4104.358974,4112.307692,4082.820512,4090.128205,4042.307692,4081.923077,4126.538461
4059.358974,4091.282051,3942.948717,4079.230769,4046.666666,4079.358974,4079.487179,4094.358974,4103.846154,4069.871795,4076.025641,4031.794871,4073.589743,4131.025641
4075.25641,4097.564102,3951.538461,4080.384615,4057.307692,4086.282051,4087.948718,4110.51282,4117.435897,4088.205128,4091.923077,4046.794871,4091.025641,4131.410256
4071.538461,4091.923077,3949.871794,4069.743589,4054.743589,4085.51282,4091.153846,4116.025641,4119.871795,4086.025641,4082.435897,4046.923077,4089.871795,4122.564102
4061.666666,4081.153846,3943.461538,4054.871794,4044.487179,4087.435897,4096.025641,4110.384615,4109.358974,4069.230769,4064.487179,4035.641025,4076.282051,4127.179487
4056.923077,4072.564102,3937.692307,4045.76923,4035,4077.564102,4083.461538,4102.692307,4103.076923,4064.102564,4060.76923,4025.897435,4071.025641,4129.230769
4053.076923,4069.487179,3939.358974,4040,4025.384615,4066.025641,4070.25641,4104.487179,4103.717948,4065.384615,4056.538461,4022.051282,4073.076923,4124.615384
4053.974359,4069.743589,3948.974358,4036.153846,4019.615384,4067.948718,4072.564102,4107.435897,4099.615384,4055.25641,4051.282051,4025.76923,4070.128205,4127.307692
4057.179487,4067.820512,3952.435897,4030,4017.948717,4069.358974,4071.025641,4096.794871,4083.333333,4035,4050.51282,4031.153846,4063.846153,4124.615384
4067.179487,4076.666666,3962.435897,4029.230769,4028.974358,4078.974359,4082.179487,4101.794871,4082.435897,4040,4061.025641,4046.794871,4076.794871,4123.205128
4069.871795,4083.589743,3970.897435,4025,4040.76923,4088.333333,4094.230769,4111.666666,4092.692307,4053.205128,4064.230769,4056.025641,4083.589743,4125.384615
4060.25641,4077.179487,3963.205128,4001.282051,4040.384615,4085.25641,4085.897436,4101.538461,4086.410256,4043.333333,4051.025641,4043.974359,4066.025641,4125.51282
4048.076923,4070.128205,3951.794871,3972.179487,4032.692307,4072.051282,4063.974359,4088.846154,4076.923077,4035.128205,4041.410256,4028.974358,4057.820512,4124.871795
4037.051282,4068.333333,3948.461538,3956.410256,4027.051282,4059.358974,4050.384615,4083.974359,4078.461538,4039.102564,4038.076923,4022.564102,4059.487179,4122.051282
4034.230769,4069.487179,3953.205128,3952.051281,4032.692307,4064.743589,4059.102564,4084.743589,4081.666666,4041.794871,4039.743589,4024.102564,4056.410256,4124.871795
4043.076923,4080.384615,3965.76923,3949.871794,4044.615384,4073.076923,4067.820512,4089.230769,4085.76923,4052.307692,4051.666666,4034.743589,4064.358974,4125.897436
4045.128205,4087.948718,3970.641025,3941.794871,4044.230769,4069.615384,4063.589743,4091.794871,4092.179487,4061.538461,4052.820512,4035.25641,4072.179487,4124.102564
4031.794871,4075.25641,3955.128205,3923.846153,4028.846153,4064.487179,4061.282051,4091.538461,4091.282051,4055.51282,4033.076923,4022.435897,4063.076923,4131.025641
4025.128205,4060.384615,3939.743589,3902.564102,4014.487179,4057.564102,4056.666666,4087.435897,4085.76923,4048.205128,4022.179487,4014.358974,4053.974359,4127.692307
4026.282051,4053.717948,3930.641025,3883.974358,4003.974358,4046.666666,4044.743589,4077.564102,4081.666666,4034.871794,4020.76923,4007.051282,4051.666666,4120.384615
4021.666666,4051.923077,3922.051281,3871.923076,3995.384615,4044.102564,4047.692307,4073.846154,4080,4017.435897,4009.102564,4001.410256,4047.564102,4125.769231
4012.564102,4049.230769,3919.999999,3866.666666,3985.76923,4040.51282,4047.179487,4069.230769,4072.435897,4008.205128,3998.205128,4001.282051,4039.871794,4126.794872
4013.974358,4045.76923,3927.564102,3860.897435,3979.743589,4035.384615,4039.102564,4068.076923,4067.692307,4004.743589,4001.794871,4003.974358,4039.102564,4121.666666
4019.871794,4048.846153,3934.871794,3856.538461,3982.948717,4043.461538,4046.538461,4073.589743,4070.51282,4003.974358,4005.25641,4003.589743,4043.589743,4123.205128
4013.076923,4046.794871,3932.948717,3853.717948,3982.692307,4045.641025,4047.692307,4064.871794,4062.820512,3998.846153,3995.641025,3995.76923,4034.102564,4129.615384
3999.871794,4033.717948,3925.897435,3844.358974,3974.999999,4032.179487,4031.025641,4048.846153,4047.179487,3983.333333,3980.128205,3986.02564,4016.794871,4129.358974
3993.589743,4025.76923,3919.743589,3835.384614,3969.230769,4022.051282,4019.615384,4043.333333,4040.76923,3972.820512,3972.948717,3976.923076,4013.589743,4125.769231
3993.974358,4028.461538,3916.794871,3837.051281,3969.999999,4020.76923,4017.051282,4043.846153,4044.615384,3982.435897,3982.435897,3974.871794,4018.589743,4126.410256
3990.76923,4024.743589,3913.589743,3836.923076,3970.25641,4015.76923,4009.487179,4038.461538,4044.102564,3991.538461,3988.589743,3973.717948,4016.794871,4125.25641
3988.461538,4019.615384,3912.692307,3829.999999,3969.615384,4009.102564,4005.128205,4032.948717,4040.51282,3988.717948,3982.435897,3971.282051,4013.589743,4125.51282
3990.641025,4026.025641,3915.51282,3830.641025,3973.589743,4013.717948,4010.51282,4033.461538,4039.871794,3992.307692,3989.743589,3980.128205,4017.820512,4128.205128
3985.641025,4025.641025,3909.487179,3827.692307,3972.435897,4018.717948,4011.923076,4034.487179,4037.820512,3994.999999,3994.999999,3984.615384,4018.461538,4128.974359
3973.205128,4012.564102,3893.717948,3808.846153,3958.461538,4003.461538,3997.051282,4027.820512,4032.692307,3982.948717,3972.948717,3967.564102,4005.384615,4130.128205
3974.487179,4012.179487,3893.717948,3803.205127,3949.615384,3992.435897,3987.435897,4019.615384,4029.230769,3976.666666,3964.358974,3962.051281,4002.564102,4125
3990.76923,4031.282051,3915.641025,3819.871794,3961.923076,4010.51282,4003.589743,4026.025641,4029.615384,3986.923076,3988.974358,3986.538461,4018.589743,4123.205128
3981.666666,4026.538461,3915.128204,3814.743589,3958.717948,4005,3999.358974,4024.358974,4021.666666,3980.641025,3987.051282,3988.205128,4014.230769,4128.974359
3960.25641,4001.410256,3896.153845,3791.666666,3937.820512,3981.153846,3980.128205,4018.974358,4018.717948,3964.102563,3961.410256,3966.923076,3995.384615,4125
3960.897435,3998.846153,3897.051281,3788.974358,3932.692307,3985.25641,3983.205128,4015.897435,4017.307692,3957.435897,3958.333333,3962.948717,3992.307692,4122.948718
3963.333333,4003.589743,3899.615384,3790.76923,3933.717948,3992.435897,3988.589743,4002.820512,4000.128205,3946.282051,3962.435897,3964.871794,3989.102564,4127.692307
3956.923076,3995.51282,3889.743589,3780.76923,3929.487179,3985.128205,3982.820512,4006.538461,3997.820512,3942.948717,3956.923076,3962.179487,3983.717948,4124.487179
3957.820512,3993.076923,3891.538461,3773.974358,3930.76923,3983.717948,3979.487179,4021.666666,4012.435897,3953.974358,3955.384615,3963.333333,3988.717948,4121.153846
3957.564102,3992.179487,3893.717948,3769.615384,3934.871794,3990.897435,3981.923076,4011.153846,4003.461538,3949.230769,3952.820512,3959.102563,3985.128205,4126.153846
3949.999999,3985.76923,3880.384615,3765.641025,3937.435897,3996.538461,3985.76923,3997.820512,3988.974358,3934.871794,3947.435897,3945.76923,3974.999999,4128.205128
3948.974358,3985.51282,3875.25641,3766.666666,3942.564102,3990.641025,3978.461538,4006.410256,3999.871794,3941.923076,3952.435897,3941.02564,3980.25641,4122.948718
3939.871794,3976.538461,3873.846153,3758.974358,3932.179486,3969.615384,3954.230769,3992.564102,3994.615384,3948.846153,3954.743589,3939.615384,3981.666666,4124.358974
3930.897435,3965.25641,3870.51282,3752.179486,3922.692307,3965.51282,3949.999999,3971.153846,3975.384615,3941.923076,3955.384615,3938.717948,3973.846153,4128.717948
3949.487179,3979.999999,3890.897435,3772.564102,3941.02564,3986.666666,3977.179487,3992.307692,3992.179487,3958.205128,3974.102564,3952.692307,3984.871794,4125.51282
3966.02564,3992.692307,3911.923076,3790.51282,3948.333333,3990.25641,3983.461538,4012.820512,4013.461538,3979.615384,3986.153846,3962.307692,3997.948717,4125.51282
3966.794871,3992.179487,3910.76923,3788.076922,3945.128205,3988.461538,3982.051282,4013.333333,4008.717948,3979.615384,3982.948717,3966.02564,3999.487179,4124.615384
3978.589743,4003.589743,3914.487179,3796.28205,3961.538461,4005.76923,4002.564102,4020.76923,4011.794871,3986.02564,3993.589743,3982.051282,4009.615384,4119.230769
3978.589743,4003.589743,3914.487179,3796.28205,3961.538461,4005.76923,4002.564102,4020.76923,4011.794871,3986.02564,3993.589743,3982.051282,4009.615384,4119.230769
3985.25641,4007.948717,3918.846153,3803.076922,3961.153846,4004.230769,4004.615384,4021.282051,4016.410256,3992.948717,4002.179487,3990.25641,4018.205128,4122.820513
3962.820512,3981.02564,3896.153845,3783.717948,3927.307692,3972.179487,3970.384615,3999.102564,3993.076923,3965.384615,3978.333333,3970.128205,3999.743589,4125.51282
3950.76923,3963.846153,3880.897435,3774.743589,3920.128204,3964.230769,3959.615384,3988.076923,3975.384615,3937.179486,3959.871794,3959.230769,3980.76923,4122.948718
3975.384615,3983.846153,3907.051281,3799.871794,3948.846153,3995.25641,3993.076923,4009.230769,3991.282051,3957.307692,3983.076923,3981.923076,3995.25641,4124.743589
3986.923076,3997.564102,3929.230769,3822.179486,3959.102563,4007.948717,4007.564102,4023.461538,4005.641025,3982.179487,4006.025641,3994.743589,4007.435897,4125.769231
3968.974358,3986.923076,3921.282051,3825.897435,3952.948717,3990.25641,3986.153846,4012.179487,4000.384615,3973.333333,3997.948717,3979.871794,3993.461538,4123.589743
3963.461538,3982.692307,3915.897435,3827.820512,3957.179487,3985.384615,3977.179487,4004.102564,3998.461538,3969.102563,3986.538461,3968.717948,3987.435897,4123.461538
3966.923076,3983.974358,3913.333333,3829.230768,3956.923076,3993.589743,3983.846153,3997.692307,3992.948717,3976.282051,3981.538461,3967.948717,3992.051282,4124.615384
3969.102563,3987.692307,3911.02564,3841.666666,3957.179487,3997.179487,3989.230769,3995.384615,3991.538461,3986.666666,3987.564102,3975.128205,3998.589743,4122.179487
3985.384615,4004.102564,3925.25641,3866.28205,3976.794871,4005.128205,4000.128205,4020.51282,4017.948717,4009.615384,4009.743589,3992.820512,4013.205128,4121.282051
3997.820512,4010.384615,3932.307692,3877.564102,3987.179487,4012.564102,4008.333333,4037.564102,4030.76923,4023.717948,4016.923076,3998.461538,4020.897435,4123.076923
3989.230769,3998.461538,3920.76923,3879.230768,3972.179487,4006.282051,4003.333333,4019.230769,4007.692307,4010.641025,4003.717948,3993.333333,4013.461538,4122.692307
3988.076923,3996.02564,3925.51282,3893.333333,3964.999999,3999.615384,3997.820512,4012.051282,4000.25641,4001.794871,4004.358974,3998.333333,4012.307692,4128.076923
3997.820512,4000.51282,3939.487179,3906.794871,3973.974358,4002.564102,3998.974358,4026.923076,4017.435897,4011.538461,4020.641025,4001.794871,4019.358974,4130.384615
3996.410256,3999.615384,3936.923076,3909.487179,3975.51282,4007.307692,4002.948717,4031.666666,4018.589743,4012.179487,4025,3995.76923,4018.205128,4125
3983.846153,3994.743589,3929.487179,3907.179486,3961.410256,4000.384615,3997.948717,4018.589743,4003.076923,3990.76923,4006.794871,3987.692307,4005.384615,4127.307692
3982.179487,3993.461538,3936.153845,3914.615384,3961.923076,4001.666666,3996.282051,4011.923076,4001.410256,3979.615384,3996.794871,3985.641025,4000.76923,4128.717948
3999.102564,4000.384615,3944.999999,3929.743589,3985.76923,4022.179487,4015.641025,4031.025641,4019.230769,3996.538461,4016.666666,3994.871794,4015,4124.743589
3994.999999,3993.589743,3928.974358,3925.76923,3988.846153,4020.641025,4016.923076,4036.410256,4020.128205,3996.666666,4018.846153,3992.179487,4013.333333,4126.666666
3971.02564,3973.461538,3903.846153,3911.410256,3970.128205,4005.128205,3995.25641,4015.641025,4003.589743,3976.282051,3993.717948,3971.923076,3993.205128,4128.589743
3981.153846,3988.461538,3914.999999,3924.358974,3984.358974,4023.717948,4007.564102,4026.410256,4015.25641,3993.589743,3999.743589,3979.102564,4002.435897,4126.410256
4005.25641,4016.923076,3941.923076,3947.948717,4011.538461,4039.743589,4026.025641,4040.76923,4031.794871,4021.410256,4021.923076,4001.282051,4023.205128,4123.974359
3989.871794,3999.102564,3934.743589,3940.25641,3994.871794,4005.641025,3992.820512,4005.384615,4010,4003.974358,4013.974358,3988.076923,4013.205128,4124.487179
3970.25641,3975.76923,3920.51282,3928.717948,3972.307692,3982.307692,3967.692307,3984.871794,3995.76923,3988.974358,4006.923076,3972.435897,4002.692307,4126.282051
3983.717948,3991.666666,3936.282051,3944.102563,3980.897435,4000.897435,3988.205128,4011.538461,4018.589743,4013.333333,4025.384615,3989.487179,4017.051282,4122.820513
4001.02564,4009.102564,3960.384615,3960.897435,3990.25641,4013.846153,4004.358974,4024.871794,4029.615384,4030.384615,4040.128205,4007.820512,4029.743589,4122.820513
4009.615384,4010.25641,3971.923076,3964.999999,3991.153846,4014.871794,4005.51282,4022.051282,4025.76923,4026.153846,4041.153846,4014.358974,4032.564102,4126.923077
4014.230769,4015.25641,3969.999999,3965.897435,3993.717948,4018.076923,4012.435897,4035.51282,4035.128205,4028.461538,4040.384615,4018.076923,4034.615384,4122.307692
4015.128205,4022.307692,3960.641025,3966.923076,3995.641025,4029.743589,4025.51282,4045.128205,4039.871794,4027.692307,4037.435897,4015.25641,4035.384615,4121.794872
4018.205128,4029.487179,3959.102563,3966.410256,4001.02564,4040.384615,4032.179487,4038.589743,4029.743589,4010,4032.435897,4014.487179,4032.820512,4122.948718
4024.102564,4037.820512,3964.999999,3968.717948,4009.358974,4034.230769,4024.871794,4031.153846,4021.282051,3999.102564,4025.384615,4018.717948,4026.923076,4118.333333
4016.410256,4029.102564,3957.435897,3962.051281,4003.333333,4019.487179,4011.153846,4025.128205,4016.282051,3998.589743,4013.333333,4004.487179,4014.487179,4125.384615
3996.153846,4013.076923,3946.666666,3950.25641,3991.153846,4013.589743,4005.128205,4020.641025,4013.589743,3992.948717,4004.102564,3981.02564,4001.153846,4118.974359
3993.076923,4008.589743,3951.538461,3951.02564,3994.102564,4016.153846,4007.179487,4026.025641,4019.615384,3990.51282,4004.871794,3980.25641,4002.435897,4100.384615
4000.25641,4009.871794,3955.384615,3954.743589,4001.794871,4013.717948,4000.897435,4024.615384,4021.025641,4001.410256,4009.871794,3987.948717,4012.948717,4118.974359
3998.333333,4012.051282,3949.358974,3954.615384,3999.615384,4014.102564,3998.461538,4016.923076,4021.282051,4012.051282,4012.051282,3983.717948,4018.846153,4145.25641
4003.076923,4020,3949.358974,3964.102563,4000.384615,4026.410256,4016.666666,4031.282051,4037.948718,4019.743589,4019.358974,3987.051282,4025,4130.897436
4011.025641,4023.717948,3947.692307,3978.717948,4004.743589,4027.307692,4021.538461,4040,4040.384615,4023.076923,4021.666666,3999.999999,4031.153846,4115
4004.487179,4019.743589,3931.923076,3981.923076,3996.538461,4014.871794,4001.794871,4019.743589,4024.358974,4017.820512,4010.641025,3999.230769,4028.205128,4124.743589
4001.538461,4025.51282,3926.666666,3988.589743,3990.76923,4018.461538,4002.435897,4011.025641,4025,4017.435897,4010.641025,3995.25641,4027.179487,4125.384615
4018.717948,4043.589743,3948.205128,4016.282051,4005,4029.358974,4023.846153,4032.179487,4043.846153,4029.230769,4036.794871,4013.589743,4040.25641,4121.153846
4033.717948,4056.025641,3971.153846,4042.051282,4010.76923,4022.051282,4023.076923,4045.384615,4048.717948,4033.205128,4059.871794,4033.974358,4050.128205,4123.076923
4034.358974,4058.846153,3977.692307,4045.51282,4000.25641,4017.948717,4018.717948,4041.410256,4042.692307,4022.692307,4059.871794,4035.128205,4047.179487,4118.717948
4043.333333,4065,3985.128205,4047.179487,4006.282051,4031.153846,4037.051282,4047.820512,4046.282051,4023.717948,4061.282051,4035.76923,4048.205128,4121.923077
4053.461538,4067.948718,3993.717948,4055.51282,4016.410256,4037.820512,4050,4058.717948,4050.641025,4033.461538,4069.230769,4043.461538,4056.923077,4124.358974
4044.743589,4059.615384,3986.923076,4052.564102,4006.282051,4035.128205,4043.974359,4058.846153,4050.51282,4027.051282,4059.102564,4040.128205,4057.564102,4121.794872
4045.641025,4066.282051,3984.102564,4054.487179,4004.871794,4036.410256,4042.435897,4061.410256,4060.128205,4027.948717,4055.641025,4040.641025,4060,4122.948718
4064.358974,4087.820512,3991.666666,4069.615384,4026.538461,4047.692307,4054.487179,4070.897436,4075.25641,4048.589743,4069.871795,4054.615384,4069.487179,4119.358974
4062.820512,4090.384615,3987.435897,4078.589743,4036.153846,4053.846153,4056.282051,4064.230769,4071.923077,4055.76923,4063.333333,4053.205128,4066.410256,4120.51282
4050.897435,4083.589743,3982.564102,4084.102564,4033.076923,4047.692307,4044.871794,4056.282051,4068.461538,4056.794871,4049.743589,4043.205128,4062.307692,4125.384615
4043.333333,4078.717948,3976.666666,4088.205128,4033.461538,4037.820512,4033.717948,4053.717948,4068.076923,4056.666666,4047.948718,4034.615384,4055.76923,4122.820513
4026.153846,4064.743589,3960.51282,4087.692307,4025.128205,4030.641025,4023.846153,4039.615384,4053.076923,4039.743589,4036.410256,4018.333333,4037.179487,4121.153846
4028.333333,4065.384615,3967.307692,4105.51282,4025.76923,4039.743589,4031.666666,4039.743589,4054.487179,4038.589743,4034.743589,4019.358974,4040.25641,4123.205128
4051.282051,4083.846154,3992.179487,4136.282051,4044.487179,4055.897435,4051.025641,4059.358974,4076.282051,4061.282051,4056.153846,4039.358974,4062.564102,4123.717948
4049.615384,4088.461538,3990.51282,4145,4045.128205,4049.487179,4049.102564,4068.589743,4083.461538,4065,4063.717948,4041.923077,4064.230769,4121.538461
4037.948718,4078.461538,3977.564102,4142.179487,4026.666666,4036.025641,4038.846153,4067.564102,4079.743589,4057.307692,4057.307692,4032.948717,4056.666666,4122.179487
4050.128205,4079.743589,3984.999999,4157.948718,4027.179487,4048.974359,4056.538461,4073.076923,4082.435897,4062.435897,4062.051282,4043.205128,4063.333333,4123.974359
4063.846153,4090.384615,3991.410256,4177.820513,4040,4062.948718,4073.076923,4074.743589,4084.743589,4060.897435,4063.717948,4054.230769,4064.743589,4118.846154
4064.358974,4094.615384,3987.179487,4181.282051,4040,4055.51282,4064.487179,4076.538461,4090.76923,4056.666666,4056.282051,4046.794871,4062.307692,4118.974359
4054.230769,4090,3979.487179,4179.871795,4035.641025,4049.230769,4053.333333,4072.692307,4088.333333,4050.51282,4048.717948,4032.179487,4061.025641,4126.923077
4046.025641,4091.153846,3977.692307,4193.205128,4044.615384,4054.743589,4052.692307,4054.871794,4071.794871,4037.051282,4049.615384,4024.743589,4054.230769,4125.25641
4052.564102,4095.897436,3984.358974,4206.538461,4052.820512,4056.153846,4052.307692,4043.333333,4064.358974,4034.743589,4055.76923,4026.025641,4047.948718,4121.025641
4053.205128,4086.153846,3984.999999,4206.025641,4046.153846,4048.205128,4043.461538,4042.435897,4066.666666,4038.846153,4051.923077,4026.025641,4043.974359,4121.923077
4048.333333,4085.51282,3988.205128,4217.307692,4047.948718,4051.025641,4043.333333,4050.641025,4075.25641,4044.615384,4055.76923,4032.564102,4050.51282,4122.820513
4061.410256,4103.333333,4002.820512,4250.512821,4064.102564,4063.846153,4060.384615,4066.538461,4091.666666,4066.794871,4075.76923,4050.25641,4068.205128,4126.666666
4078.076923,4110.25641,4012.435897,4276.153846,4071.538461,4070.76923,4078.846154,4078.461538,4105.769231,4093.205128,4090,4064.487179,4080.897436,4126.923077
4082.179487,4108.461538,4009.871794,4290.128205,4068.076923,4070.641025,4080.897436,4076.153846,4106.794872,4095.128205,4089.743589,4071.025641,4086.794871,4124.102564
4089.358974,4114.358974,4011.282051,4310.384616,4066.794871,4070.51282,4079.871795,4088.589743,4116.282051,4098.846154,4091.410256,4078.333333,4096.666666,4124.102564
4090.897436,4112.179487,4014.487179,4329.74359,4064.230769,4069.230769,4081.794871,4106.025641,4128.589743,4110.25641,4095.51282,4078.333333,4099.871795,4123.076923
4076.794871,4098.717948,4008.717948,4340.769231,4058.076923,4066.282051,4073.461538,4087.820512,4113.846154,4096.025641,4086.025641,4065.51282,4083.333333,4124.743589
4073.717948,4098.461538,4008.589743,4356.923077,4056.025641,4063.974359,4067.820512,4068.846153,4096.025641,4078.333333,4075.897436,4060.25641,4072.564102,4126.025641
4082.307692,4104.743589,4017.179487,4374.358975,4059.487179,4067.564102,4079.102564,4081.410256,4103.076923,4078.974359,4075,4063.717948,4079.615384,4122.948718
4077.051282,4094.487179,4015.76923,4376.153846,4062.564102,4075.128205,4084.487179,4087.564102,4105.641025,4067.435897,4065.51282,4056.666666,4074.358974,4122.179487
4063.589743,4079.487179,4005.76923,4376.153846,4061.410256,4071.153846,4071.923077,4067.564102,4087.051282,4046.025641,4047.564102,4045.897435,4057.179487,4123.974359
4061.666666,4084.871795,4006.410256,4385.641026,4065,4061.410256,4067.051282,4060.25641,4081.794871,4047.051282,4044.743589,4045.897435,4057.307692,4124.487179
4064.871794,4096.410256,4010.51282,4388.333334,4075.641025,4063.076923,4071.025641,4070,4097.051282,4059.871794,4052.692307,4046.410256,4064.615384,4121.538461
4065.641025,4092.564102,4004.871794,4382.564103,4077.692307,4068.974359,4071.923077,4075,4106.794872,4066.282051,4051.923077,4043.076923,4063.205128,4120.641025
4070.128205,4090.76923,4006.153846,4388.974359,4075,4068.717948,4074.102564,4076.025641,4106.410256,4080.384615,4058.846153,4054.102564,4072.692307,4122.820513
4080.897436,4102.692307,4020,4410,4083.461538,4074.230769,4083.974359,4084.230769,4115.128205,4110.384615,4079.102564,4074.358974,4092.435897,4122.179487
4095,4115.384615,4029.871794,4428.461539,4098.589743,4096.410256,4109.871795,4114.358974,4148.076923,4136.282051,4095.384615,4083.846154,4104.743589,4125
4092.435897,4109.871795,4022.692307,4437.564103,4093.076923,4098.461538,4113.461538,4123.205128,4157.179487,4130.25641,4091.282051,4076.923077,4100.76923,4124.487179
4073.076923,4087.051282,4009.615384,4442.307693,4067.435897,4064.743589,4074.358974,4082.307692,4118.461538,4106.794872,4075.641025,4067.307692,4084.743589,4121.538461
4069.615384,4075.641025,4010,4456.410257,4056.538461,4048.205128,4053.205128,4060.76923,4098.589743,4098.205128,4075.25641,4068.461538,4080.897436,4124.487179
4072.692307,4076.923077,4015,4474.102565,4063.974359,4064.871794,4070.641025,4079.615384,4113.076923,4094.871795,4074.871795,4066.025641,4079.230769,4124.102564
4060.897435,4071.538461,4010.51282,4482.435898,4066.923077,4075.51282,4079.615384,4083.333333,4111.153846,4080.384615,4059.871794,4056.410256,4067.179487,4121.025641
4065.384615,4072.051282,4017.435897,4495.384616,4071.025641,4071.666666,4076.666666,4079.102564,4106.153846,4080.76923,4066.282051,4066.923077,4075.51282,4120.384615
4082.564102,4082.307692,4030.897435,4507.820513,4077.051282,4068.333333,4075.25641,4084.615384,4114.871795,4088.846154,4082.179487,4081.025641,4090,4122.051282
4076.923077,4081.666666,4023.589743,4504.871795,4079.615384,4078.589743,4084.230769,4083.205128,4114.487179,4077.179487,4071.666666,4071.666666,4077.564102,4122.948718
4071.410256,4082.692307,4015.641025,4500.897436,4087.948718,4089.615384,4098.205128,4081.923077,4113.846154,4072.179487,4066.538461,4070,4073.205128,4121.410256
4088.076923,4094.487179,4025.641025,4502.179488,4098.076923,4084.743589,4095.76923,4092.948718,4128.205128,4093.846154,4082.948718,4090.76923,4093.205128,4121.538461
4097.692307,4098.076923,4036.025641,4496.666667,4099.230769,4080.51282,4086.538461,4097.564102,4138.974359,4113.076923,4093.461538,4099.615384,4100.51282,4120.897436
4090.897436,4098.076923,4035.897435,4483.846154,4102.179487,4085.76923,4087.307692,4090.25641,4135.897436,4110.641025,4094.743589,4089.871795,4094.230769,4119.743589
4088.461538,4098.333333,4032.948717,4468.461539,4105.384615,4084.358974,4085.128205,4085.128205,4129.230769,4106.666666,4096.025641,4082.179487,4094.102564,4122.564102
4092.692307,4092.435897,4037.051282,4448.589744,4102.692307,4080.897436,4083.333333,4089.230769,4130.769231,4114.358974,4096.666666,4083.589743,4098.205128,4123.205128
4088.717948,4089.615384,4040.384615,4428.974359,4099.871795,4082.307692,4087.307692,4092.564102,4135.384615,4117.564102,4094.487179,4081.538461,4094.743589,4124.230769
4075.51282,4086.282051,4030.897435,4406.410257,4094.743589,4073.846154,4080.51282,4086.666666,4131.538461,4110.897436,4086.410256,4070.897436,4084.743589,4124.358974
4075.128205,4083.333333,4026.153846,4385.512821,4090,4070.51282,4076.410256,4083.333333,4126.923077,4107.051282,4085.384615,4067.564102,4085.897436,4121.410256
4091.923077,4094.358974,4039.871794,4373.589744,4094.358974,4086.282051,4091.153846,4086.538461,4127.820513,4111.410256,4098.076923,4080.25641,4099.487179,4123.205128
4101.794871,4102.179487,4048.589743,4358.974359,4098.846154,4092.948718,4100.128205,4088.076923,4129.615384,4111.923077,4099.230769,4089.743589,4106.025641,4125.128205
4108.461538,4100.25641,4054.358974,4348.589744,4102.692307,4090.76923,4098.974359,4095.384615,4138.717949,4115.769231,4098.205128,4097.948718,4110.769231,4125.128205
4116.538461,4104.102564,4064.743589,4347.307693,4106.794872,4092.435897,4096.666666,4100.897436,4141.794872,4122.948718,4102.692307,4107.435897,4114.871795,4124.615384
4114.230769,4102.820513,4062.820512,4336.538462,4101.410256,4089.230769,4091.153846,4090.76923,4126.410256,4109.743589,4093.846154,4103.333333,4103.589743,4122.051282
4108.589743,4094.487179,4058.589743,4319.615385,4093.846154,4082.564102,4086.923077,4081.923077,4120.384615,4096.923077,4088.846154,4097.435897,4096.153846,4120.897436
4115.641025,4101.153846,4072.307692,4322.435898,4102.307692,4090.128205,4094.615384,4092.435897,4138.333333,4116.282051,4102.948718,4109.487179,4109.230769,4120.641025
4126.025641,4116.025641,4087.435897,4332.051282,4116.025641,4100.384615,4106.282051,4106.794872,4150.51282,4132.051282,4110.897436,4120.769231,4115.25641,4121.538461
4126.794872,4120.25641,4088.461538,4328.076923,4121.666666,4098.461538,4109.615384,4108.333333,4146.794872,4126.794872,4107.564102,4119.358974,4106.923077,4125.25641
4129.358974,4124.743589,4086.538461,4331.794872,4129.487179,4108.461538,4119.230769,4113.461538,4153.589743,4135.128205,4115.769231,4120.641025,4111.025641,4126.538461
4130.769231,4126.410256,4084.230769,4343.333334,4133.076923,4118.974359,4128.076923,4120.897436,4161.538461,4145.51282,4118.974359,4117.692307,4119.615384,4126.282051
4129.230769,4122.435897,4084.358974,4354.74359,4128.461538,4113.461538,4122.948718,4120.384615,4159.358974,4142.820513,4115.897436,4111.794872,4119.615384,4128.205128
4130.897436,4120.384615,4084.615384,4370,4127.564102,4109.871795,4117.820513,4116.923077,4155.769231,4144.102564,4123.461538,4114.871795,4121.025641,4128.205128
4120,4113.974359,4065,4620.000001,4136.923077,4113.974359,4119.871795,4105.25641,4137.948718,4113.205128,4111.282051,4086.794871,4107.820513,4122.820513
4094.871795,4088.974359,4035.76923,4620.512821,4117.820513,4096.666666,4099.358974,4090.128205,4124.871795,4096.025641,4085.76923,4060.51282,4087.564102,4123.333333
4090.128205,4085.128205,4032.307692,4638.076924,4113.333333,4090.51282,4092.307692,4092.307692,4133.333333,4105.769231,4086.666666,4055.76923,4086.153846,4123.205128
4099.358974,4095.641025,4052.564102,4668.846155,4125,4095,4099.487179,4096.794871,4148.846154,4128.974359,4111.153846,4078.205128,4108.205128,4124.230769
4105.384615,4096.923077,4065.384615,4685.128206,4131.794872,4102.948718,4110.384615,4102.564102,4156.282051,4142.307692,4126.794872,4095.128205,4122.692307,4126.025641
4111.282051,4099.230769,4065.897435,4692.051283,4131.025641,4105,4114.230769,4111.282051,4159.102564,4146.025641,4128.717948,4102.179487,4121.794872,4125
4112.307692,4100.128205,4062.051282,4697.692309,4123.846154,4097.435897,4105.51282,4106.666666,4156.538461,4144.487179,4125.384615,4107.435897,4118.333333,4126.153846
4110.897436,4094.358974,4064.487179,4694.23077,4114.743589,4094.487179,4101.025641,4096.025641,4151.282051,4139.102564,4121.666666,4106.666666,4117.948718,4126.794872
4122.051282,4103.717948,4078.974359,4694.23077,4117.564102,4100.897436,4106.410256,4097.820512,4152.435897,4141.153846,4126.794872,4112.051282,4123.076923,4123.974359
4135,4120.641025,4085.897436,4701.923078,4126.153846,4107.051282,4111.538461,4101.794871,4149.615384,4140.128205,4128.974359,4121.666666,4122.820513,4126.410256
4135.25641,4119.358974,4081.923077,4702.179488,4125.641025,4107.051282,4110.128205,4099.358974,4141.410256,4127.435897,4118.333333,4121.153846,4117.051282,4122.179487
4136.666666,4116.410256,4085,4698.461539,4125.897436,4106.923077,4113.333333,4102.692307,4143.717949,4122.435897,4112.692307,4116.410256,4115.51282,4116.794872
4147.692307,4126.666666,4096.025641,4705.641027,4134.358974,4113.974359,4127.051282,4113.974359,4153.461538,4126.794872,4115.384615,4119.102564,4120.769231,4124.358974
4147.948718,4127.051282,4095.897436,4713.589745,4138.589743,4113.717948,4127.948718,4113.717948,4150.25641,4118.333333,4106.410256,4114.102564,4118.461538,4125.128205
4136.538461,4119.102564,4086.538461,4714.48718,4138.333333,4113.461538,4121.666666,4111.794872,4146.538461,4110.641025,4092.307692,4098.205128,4111.025641,4119.743589
4127.948718,4114.487179,4078.076923,4715.641027,4132.564102,4113.717948,4119.230769,4117.307692,4151.923077,4116.282051,4088.974359,4085.384615,4107.948718,4120.641025
4125.51282,4111.153846,4076.923077,4721.538463,4127.692307,4106.923077,4114.743589,4113.846154,4153.076923,4124.358974,4089.358974,4077.820512,4106.666666,4122.948718
4125.51282,4112.820513,4081.923077,4729.743591,4132.820513,4101.282051,4105.51282,4106.794872,4156.666666,4135.128205,4092.820512,4079.358974,4111.794872,4123.846154
4116.538461,4111.025641,4078.461538,4731.923078,4132.948718,4101.923077,4099.615384,4105.897436,4160.769231,4142.564102,4100.128205,4079.230769,4115.128205,4123.974359
4101.410256,4096.538461,4061.794871,4730.128206,4121.153846,4104.743589,4101.282051,4100,4151.410256,4136.025641,4102.051282,4066.025641,4108.974359,4123.333333
4103.205128,4095.25641,4056.794871,4737.307693,4118.333333,4103.333333,4100,4091.923077,4144.230769,4133.846154,4102.564102,4061.794871,4108.846154,4121.410256
4131.153846,4123.589743,4082.820512,4765.769232,4139.230769,4111.794872,4109.871795,4107.564102,4161.025641,4153.974359,4121.153846,4085.384615,4128.205128,4123.205128
4145.25641,4139.74359,4096.794871,4793.076924,4153.333333,4120.51282,4123.076923,4124.487179,4174.102564,4164.615384,4134.487179,4099.358974,4140.128205,4123.461538
4122.307692,4122.307692,4069.102564,4791.282052,4133.589743,4104.102564,4109.230769,4107.307692,4151.410256,4139.487179,4115.897436,4076.923077,4121.538461,4119.487179
4106.794872,4109.615384,4054.743589,4792.692309,4113.333333,4089.102564,4093.974359,4091.538461,4125.51282,4115.128205,4104.102564,4062.948718,4107.564102,4122.179487
4126.666666,4121.538461,4081.025641,4822.179488,4126.282051,4102.179487,4111.666666,4106.282051,4129.743589,4123.461538,4121.410256,4083.589743,4121.282051,4124.102564
4126.666666,4121.538461,4081.025641,4822.179488,4126.282051,4102.179487,4111.666666,4106.282051,4129.743589,4123.461538,4121.410256,4083.589743,4121.282051,4124.102564
4147.179487,4136.794872,4104.487179,4848.846155,4148.076923,4118.717948,4130.384615,4120.769231,4145,4136.282051,4137.564102,4106.666666,4135.384615,4121.666666
4147.692307,4141.794872,4108.717948,4854.743591,4151.025641,4118.974359,4124.871795,4118.076923,4140.641025,4127.435897,4137.948718,4111.025641,4134.743589,4125.769231
4151.153846,4146.025641,4115.769231,4859.871796,4154.871795,4121.538461,4126.794872,4120.128205,4136.025641,4118.974359,4137.435897,4115.25641,4136.410256,4127.051282
4153.205128,4144.871795,4110.769231,4858.46154,4157.692307,4121.666666,4128.333333,4119.487179,4140.897436,4119.358974,4131.538461,4116.666666,4136.153846,4124.230769
4139.230769,4137.051282,4090.128205,4843.333335,4147.564102,4112.564102,4115.641025,4110.641025,4138.333333,4116.282051,4111.794872,4101.666666,4126.282051,4127.564102
4126.282051,4134.743589,4080.384615,4832.051283,4142.307692,4107.051282,4110.641025,4107.948718,4133.461538,4115,4101.794871,4086.538461,4116.153846,4126.410256
4123.333333,4131.538461,4074.102564,4821.794873,4141.282051,4103.589743,4106.794872,4101.025641,4128.717948,4114.358974,4106.410256,4080.384615,4110.641025,4122.564102
4125.128205,4125.384615,4068.076923,4814.743591,4141.538461,4104.358974,4102.051282,4096.153846,4126.794872,4119.358974,4112.179487,4081.025641,4114.230769,4124.743589
4135,4135.25641,4079.358974,4815.512822,4151.282051,4115.769231,4112.820513,4108.076923,4137.820513,4138.589743,4122.948718,4090,4129.487179,4126.666666
4151.794872,4153.717949,4096.153846,4812.564104,4160.897436,4127.948718,4132.692307,4124.615384,4153.333333,4159.358974,4140,4100.51282,4143.974359,4124.615384
4157.948718,4153.846154,4098.461538,4799.743591,4158.461538,4127.435897,4137.051282,4127.692307,4159.487179,4169.102564,4145.641025,4103.974359,4149.615384,4122.820513
4166.025641,4154.487179,4105.128205,4792.435899,4163.076923,4133.717948,4142.179487,4133.589743,4164.871795,4178.974359,4151.282051,4114.487179,4158.076923,4124.487179
4178.846154,4166.282051,4111.794872,4788.71795,4173.974359,4147.435897,4155.897436,4146.538461,4174.230769,4185.25641,4161.923077,4126.538461,4165.384615,4125.25641
4168.589743,4158.461538,4096.025641,4769.358975,4162.051282,4135.641025,4143.974359,4138.076923,4170.897436,4167.820513,4150.641025,4116.153846,4155,4122.948718
4155.128205,4147.051282,4087.948718,4753.076924,4152.564102,4119.102564,4126.410256,4126.025641,4163.974359,4152.564102,4139.615384,4105.769231,4146.666666,4125.384615
4165.25641,4156.794872,4103.076923,4749.487181,4165.25641,4126.410256,4136.025641,4132.435897,4162.179487,4156.923077,4152.435897,4113.589743,4152.692307,4126.282051
4171.923077,4161.025641,4108.717948,4737.435898,4171.410256,4136.538461,4150.897436,4144.615384,4162.820513,4153.717949,4155.384615,4115.641025,4149.871795,4123.589743
4159.230769,4147.948718,4098.461538,4715.769232,4163.846154,4135.128205,4148.974359,4142.820513,4162.307692,4139.230769,4141.666666,4105,4136.410256,4124.743589
4153.205128,4141.538461,4091.923077,4700.512821,4166.153846,4134.871795,4146.410256,4135.384615,4158.717949,4137.820513,4141.410256,4102.051282,4135.128205,4122.948718
4161.282051,4147.307692,4092.435897,4688.846155,4177.307692,4138.846154,4150,4138.846154,4162.564102,4153.205128,4152.435897,4109.615384,4144.487179,4122.564102
4164.358974,4153.974359,4094.871795,4672.179488,4181.666667,4144.74359,4147.820513,4145.897436,4172.179487,4164.871795,4155.769231,4117.564102,4150.384615,4126.794872
4170.384615,4162.692307,4102.948718,4660.256411,4185.25641,4150.897436,4150.25641,4150.25641,4177.179487,4167.948718,4155.897436,4126.153846,4156.153846,4126.025641
4177.820513,4166.538461,4108.205128,4643.71795,4186.410256,4147.051282,4151.282051,4147.051282,4171.410256,4164.871795,4156.282051,4130.51282,4157.179487,4124.230769
4169.102564,4156.025641,4103.717948,4614.743591,4178.461538,4136.025641,4141.666666,4135.51282,4162.692307,4161.153846,4156.282051,4128.974359,4151.666666,4125.128205
4169.102564,4156.025641,4103.717948,4614.743591,4178.461538,4136.025641,4141.666666,4135.51282,4162.692307,4161.153846,4156.282051,4128.974359,4151.666666,4125.128205
4160.641025,4149.74359,4106.025641,4591.666667,4172.051282,4135.641025,4136.666666,4128.461538,4162.564102,4165.897436,4160.384615,4132.564102,4152.179487,4123.333333
4167.307692,4152.948718,4120.51282,4578.333334,4173.461538,4137.435897,4133.846154,4128.333333,4163.076923,4172.051282,4163.205128,4140.384615,4158.717949,4120.641025
4171.025641,4148.076923,4127.051282,4562.307693,4172.820513,4135.25641,4131.410256,4131.153846,4161.538461,4170.128205,4158.461538,4140,4157.307692,4123.717948
4165.769231,4139.74359,4118.333333,4542.179488,4169.487179,4136.666666,4137.820513,4136.666666,4161.538461,4160.384615,4154.230769,4130.641025,4146.923077,4122.948718
4163.717949,4139.102564,4110.128205,4525.641026,4171.025641,4140.25641,4145.897436,4143.333333,4163.205128,4153.717949,4152.051282,4123.717948,4142.820513,4117.948718
4158.205128,4135.25641,4101.025641,4508.97436,4174.230769,4140.897436,4147.564102,4145.51282,4164.230769,4149.615384,4141.282051,4114.871795,4141.025641,4124.102564
4146.410256,4124.743589,4085.384615,4493.076924,4173.333333,4145.128205,4148.076923,4142.948718,4162.179487,4138.461538,4124.358974,4100.384615,4130.641025,4127.051282
4146.025641,4127.820513,4083.846154,4492.051283,4175.897436,4151.923077,4151.666666,4141.153846,4162.179487,4134.102564,4122.692307,4100.897436,4129.102564,4123.717948
4151.666666,4139.230769,4089.230769,4499.358975,4179.358974,4149.230769,4150.25641,4140.51282,4162.692307,4141.794872,4126.538461,4110.641025,4139.615384,4124.615384
4138.205128,4129.743589,4076.282051,4494.615385,4170.51282,4136.410256,4132.564102,4125.769231,4151.794872,4136.025641,4109.615384,4096.923077,4132.820513,4122.051282
4115.51282,4113.076923,4061.538461,4490.256411,4157.948718,4127.051282,4109.871795,4101.794871,4137.051282,4116.538461,4092.435897,4074.615384,4114.102564,4123.205128
4115.128205,4118.205128,4065,4503.205129,4156.025641,4122.051282,4102.435897,4097.307692,4138.461538,4122.179487,4103.333333,4079.871795,4116.666666,4127.435897
4127.820513,4127.948718,4070.384615,4516.410257,4158.461538,4118.333333,4108.461538,4108.076923,4146.923077,4142.692307,4117.307692,4096.666666,4125.25641,4126.410256
4136.538461,4131.794872,4081.410256,4526.666667,4167.435897,4133.974359,4128.974359,4121.282051,4157.307692,4155.51282,4122.692307,4108.333333,4133.333333,4125.25641
4146.794872,4146.025641,4102.820513,4541.794872,4179.615384,4154.102564,4149.615384,4138.205128,4175.641026,4175.384615,4137.435897,4123.333333,4151.282051,4123.974359
4150.51282,4153.205128,4107.179487,4545.128206,4175.384615,4143.846154,4142.692307,4140.128205,4180.641026,4187.051282,4145.384615,4128.333333,4155.769231,4122.820513
4150,4147.820513,4101.410256,4537.948719,4164.615384,4128.846154,4128.205128,4129.743589,4172.564102,4180.25641,4143.205128,4126.794872,4148.589743,4122.435897
4158.974359,4155.25641,4107.307692,4537.692308,4169.871795,4133.076923,4132.948718,4137.948718,4177.692308,4179.230769,4147.692307,4132.692307,4155,4123.461538
4158.846154,4156.923077,4111.153846,4533.205129,4169.102564,4131.666666,4133.846154,4147.179487,4176.538461,4177.948718,4145,4127.948718,4156.410256,4123.076923
4149.230769,4143.717949,4113.333333,4525.897436,4157.435897,4126.794872,4129.102564,4141.153846,4162.820513,4165.769231,4137.948718,4115.897436,4147.564102,4120.897436
4161.923077,4153.333333,4130.769231,4535.256411,4167.435897,4141.153846,4142.564102,4146.025641,4166.666666,4163.717949,4150.769231,4128.461538,4155,4125.384615
4181.666667,4171.282051,4145.128205,4546.153847,4185.25641,4154.487179,4156.794872,4158.974359,4181.410256,4172.564102,4165.384615,4146.025641,4165.641025,4128.717948
4179.615384,4167.948718,4139.74359,4543.333334,4181.923077,4148.589743,4153.076923,4152.564102,4178.589743,4173.974359,4159.487179,4141.923077,4161.923077,4124.487179
4168.589743,4160.641025,4130.769231,4536.923078,4175.897436,4141.282051,4146.794872,4135,4164.358974,4171.025641,4147.692307,4132.820513,4157.307692,4125.897436
4166.794872,4162.564102,4128.461538,4537.948719,4186.794872,4147.435897,4148.846154,4132.564102,4163.589743,4172.564102,4148.461538,4132.820513,4158.333333,4125.51282
4165.769231,4162.564102,4123.461538,4539.48718,4190.641026,4152.051282,4150.51282,4139.871795,4169.230769,4174.487179,4153.717949,4127.307692,4156.282051,4121.538461
4147.948718,4149.871795,4106.794872,4530.128206,4174.615384,4137.179487,4138.461538,4127.692307,4159.230769,4165.51282,4140.384615,4108.846154,4143.717949,4126.153846
4128.717948,4130.769231,4093.333333,4523.97436,4166.923077,4128.076923,4128.333333,4114.743589,4149.74359,4152.692307,4122.820513,4094.743589,4132.948718,4127.692307
4127.948718,4125.51282,4093.205128,4531.794872,4170,4133.076923,4130.641025,4123.589743,4157.435897,4154.487179,4124.871795,4091.410256,4135.25641,4124.615384
4138.205128,4138.461538,4103.974359,4544.102565,4174.102564,4134.615384,4133.205128,4133.589743,4166.538461,4168.076923,4137.179487,4097.820512,4144.102564,4126.153846
4139.74359,4142.179487,4108.076923,4549.48718,4174.74359,4135,4134.615384,4133.589743,4166.282051,4170.51282,4136.794872,4106.666666,4142.435897,4126.794872
4129.487179,4130.641025,4093.333333,4547.307693,4164.74359,4132.948718,4133.717948,4131.025641,4160.769231,4151.923077,4120.25641,4100.76923,4131.025641,4125.641025
4133.589743,4138.333333,4088.461538,4555.384616,4163.205128,4138.205128,4140.384615,4139.871795,4162.948718,4143.461538,4118.076923,4101.153846,4135.897436,4126.410256
4152.307692,4160.25641,4100.641025,4574.871796,4176.538461,4153.589743,4156.923077,4152.179487,4169.74359,4155.25641,4134.871795,4121.153846,4151.153846,4127.179487
4148.461538,4157.948718,4087.051282,4577.179488,4167.948718,4142.820513,4145.25641,4133.076923,4152.692307,4140.641025,4128.974359,4120.769231,4140.769231,4125.897436
4128.846154,4140,4053.974359,4568.333334,4144.871795,4114.871795,4118.205128,4104.743589,4133.461538,4110.51282,4101.666666,4099.487179,4121.538461,4122.051282
4131.538461,4139.487179,4054.358974,4582.692308,4153.974359,4125.128205,4130.897436,4118.333333,4148.974359,4116.282051,4098.205128,4100,4126.153846,4126.282051
4134.230769,4143.461538,4067.820512,4602.820514,4172.307692,4147.435897,4150.51282,4136.923077,4163.846154,4133.076923,4111.666666,4104.615384,4129.615384,4127.435897
4113.846154,4129.102564,4059.230769,4601.794873,4157.564102,4127.564102,4126.282051,4120.769231,4149.487179,4126.666666,4114.102564,4088.333333,4118.205128,4105.25641
4107.307692,4121.025641,4063.461538,4609.358975,4144.74359,4110.641025,4108.333333,4115.384615,4145.641025,4128.589743,4116.666666,4085.25641,4120.51282,4110.384615
4120.51282,4136.153846,4091.410256,4635.641026,4161.153846,4132.307692,4128.717948,4132.564102,4163.333333,4148.589743,4128.974359,4101.538461,4134.871795,4136.153846
4128.717948,4148.333333,4108.333333,4650.000001,4171.410256,4145.51282,4142.692307,4143.333333,4175.769231,4160,4140.128205,4110.25641,4144.358974,4129.102564
4131.666666,4144.871795,4114.230769,4652.179488,4162.051282,4133.333333,4133.717948,4141.666666,4178.076923,4163.461538,4146.923077,4116.794872,4149.102564,4114.487179
4135.51282,4143.205128,4126.538461,4658.205129,4157.948718,4131.282051,4130.51282,4136.410256,4174.871795,4163.333333,4148.333333,4128.333333,4150.769231,4127.179487
4150.128205,4156.666666,4146.923077,4671.153847,4169.871795,4145.25641,4145.128205,4144.230769,4178.205128,4163.974359,4153.717949,4145.25641,4157.692307,4136.794872
4161.923077,4168.333333,4166.153846,4683.97436,4173.076923,4142.307692,4148.589743,4145.384615,4180,4160.384615,4163.076923,4160.897436,4161.923077,4121.666666
4152.307692,4162.307692,4167.948718,4684.102565,4157.948718,4126.538461,4130.128205,4125.769231,4163.205128,4140.897436,4160.51282,4160,4148.974359,4122.307692
4150.128205,4159.615384,4167.564102,4679.102565,4155.769231,4127.435897,4127.307692,4122.307692,4153.589743,4132.307692,4154.102564,4156.794872,4145.769231,4129.615384
4165.25641,4170.25641,4178.205128,4679.358975,4171.538461,4139.102564,4142.179487,4140.769231,4169.487179,4143.589743,4155.769231,4166.794872,4159.615384,4123.076923
4171.923077,4179.74359,4182.051282,4676.153847,4177.820513,4140,4140.51282,4139.230769,4173.717949,4145.897436,4159.615384,4175.128205,4161.794872,4125.128205
4159.871795,4174.358974,4169.358974,4660.000001,4167.948718,4133.717948,4128.076923,4120.641025,4156.153846,4135.128205,4151.282051,4165.769231,4147.820513,4124.743589
4150.769231,4167.179487,4158.717949,4642.948719,4163.974359,4136.410256,4132.051282,4128.717948,4163.846154,4139.358974,4136.538461,4152.307692,4144.74359,4124.743589
4153.589743,4169.615384,4156.794872,4634.102565,4171.410256,4144.615384,4145.384615,4149.487179,4185.641026,4153.333333,4135,4151.025641,4153.846154,4125.384615
4147.820513,4166.282051,4146.794872,4620.512821,4166.153846,4137.435897,4138.205128,4137.564102,4177.051282,4148.333333,4136.410256,4145,4147.435897,4117.948718
4139.230769,4158.076923,4136.923077,4603.205129,4152.179487,4128.461538,4126.666666,4121.666666,4165.769231,4144.615384,4135.769231,4134.615384,4142.051282,4123.333333
4150.384615,4164.74359,4145.384615,4601.025642,4160.769231,4144.358974,4142.820513,4140.25641,4184.102564,4165.641025,4147.564102,4143.205128,4160.641025,4125.51282
4150.384615,4164.74359,4145.384615,4601.025642,4160.769231,4144.358974,4142.820513,4140.25641,4184.102564,4165.641025,4147.564102,4143.205128,4160.641025,4125.51282
4163.461538,4172.948718,4155.25641,4599.23077,4176.410256,4152.948718,4153.717949,4153.846154,4197.692308,4180.25641,4158.974359,4156.794872,4168.461538,4114.358974
4145.128205,4152.307692,4144.74359,4569.48718,4155.51282,4130.128205,4132.179487,4132.307692,4179.358974,4156.666666,4142.179487,4141.923077,4142.307692,4123.974359
4130.51282,4134.230769,4145.641025,4542.820513,4137.948718,4122.820513,4119.871795,4120.384615,4163.205128,4136.538461,4129.487179,4124.743589,4128.717948,4122.948718
4155.897436,4154.358974,4173.846154,4559.871796,4163.717949,4143.717949,4139.871795,4143.974359,4183.205128,4157.692307,4156.025641,4146.153846,4151.794872,4115.51282
4183.717949,4182.179487,4198.717949,4587.051283,4190.51282,4157.435897,4161.538461,4164.871795,4212.564103,4185.384615,4188.846154,4176.923077,4173.717949,4130.897436
4178.589743,4179.230769,4198.846154,4574.358975,4189.358974,4156.666666,4163.076923,4154.487179,4203.333333,4174.358974,4184.487179,4169.102564,4168.076923,4126.794872
4151.282051,4156.410256,4173.717949,4532.564103,4173.333333,4148.076923,4146.923077,4135.128205,4175.25641,4140.641025,4149.74359,4137.179487,4144.230769,4118.846154
4126.794872,4145.641025,4139.358974,4498.97436,4160,4132.948718,4124.102564,4123.589743,4167.179487,4124.871795,4119.871795,4116.794872,4122.307692,4128.076923
4112.564102,4142.307692,4114.871795,4478.076924,4150.25641,4125.641025,4110.128205,4107.820513,4165.51282,4118.717948,4103.076923,4106.666666,4112.564102,4124.743589
4105.25641,4138.589743,4108.333333,4463.333334,4148.589743,4131.666666,4110.769231,4100.897436,4164.487179,4115.384615,4098.205128,4097.948718,4116.153846,4117.307692
4096.410256,4135.769231,4102.179487,4448.589744,4151.025641,4130.384615,4111.153846,4108.461538,4170.769231,4115.897436,4099.487179,4090.25641,4115,4131.794872
4095.897436,4138.076923,4100.76923,4439.23077,4154.102564,4127.820513,4114.230769,4119.615384,4182.179487,4123.846154,4102.564102,4093.974359,4111.666666,4137.435897
4107.179487,4144.487179,4117.307692,4438.333334,4155.769231,4133.846154,4121.538461,4124.743589,4188.974359,4133.461538,4108.717948,4103.717948,4121.025641,4116.794872
4104.743589,4142.948718,4127.179487,4427.692308,4147.692307,4128.717948,4112.435897,4110.769231,4178.333333,4126.666666,4111.025641,4098.974359,4123.205128,4117.948718
4099.230769,4141.666666,4128.589743,4411.923077,4146.153846,4117.051282,4101.923077,4105.25641,4174.102564,4125.384615,4119.743589,4095.51282,4120.769231,4131.538461
4117.179487,4155.897436,4145.769231,4414.102564,4162.564102,4129.743589,4125.769231,4131.666666,4196.410256,4149.487179,4139.74359,4111.923077,4134.102564,4127.051282
4137.820513,4172.820513,4165.897436,4421.282052,4175.25641,4149.102564,4148.589743,4143.846154,4203.974359,4159.102564,4149.358974,4126.282051,4148.846154,4118.205128
4130,4168.589743,4154.230769,4402.051282,4162.948718,4135.897436,4129.230769,4121.025641,4182.564102,4134.871795,4134.871795,4119.358974,4141.025641,4117.179487
4121.666666,4162.307692,4136.025641,4379.74359,4152.692307,4123.461538,4116.025641,4114.743589,4178.717949,4124.615384,4120,4115.51282,4131.153846,4131.666666
4124.487179,4160,4136.153846,4373.205128,4156.410256,4126.025641,4122.051282,4123.846154,4185,4128.974359,4112.179487,4117.051282,4129.230769,4135.51282
4116.282051,4148.717949,4134.230769,4362.692308,4152.435897,4121.923077,4116.410256,4117.820513,4177.051282,4117.564102,4105.25641,4108.205128,4121.282051,4126.538461
4109.102564,4144.230769,4128.717948,4354.230769,4147.820513,4119.358974,4109.358974,4108.589743,4171.666667,4110.25641,4104.615384,4101.025641,4116.282051,4127.307692
4113.717948,4149.871795,4130.25641,4359.48718,4153.589743,4126.282051,4116.666666,4113.974359,4178.205128,4121.794872,4105,4104.487179,4119.358974,4126.410256
4115.25641,4151.153846,4130.25641,4363.717949,4159.74359,4131.666666,4125.25641,4129.871795,4190.897436,4136.282051,4104.743589,4107.051282,4124.102564,4125.25641
4115.897436,4153.076923,4126.153846,4361.538462,4162.435897,4133.461538,4131.025641,4136.923077,4200.51282,4143.974359,4106.794872,4104.230769,4128.846154,4128.461538
4119.871795,4155.897436,4116.923077,4363.076923,4159.487179,4133.589743,4133.333333,4133.333333,4197.820513,4147.051282,4105,4102.051282,4129.615384,4128.333333
4103.846154,4139.358974,4094.102564,4357.435898,4140.384615,4116.025641,4113.333333,4118.717948,4182.051282,4132.307692,4085.25641,4091.282051,4113.974359,4124.743589
4093.076923,4131.025641,4090.128205,4361.282051,4131.923077,4104.358974,4100.51282,4114.230769,4180,4120.897436,4076.025641,4087.564102,4106.538461,4121.923077
4112.435897,4149.358974,4118.076923,4386.282052,4149.871795,4119.358974,4115.51282,4124.615384,4193.076923,4133.589743,4096.025641,4104.358974,4123.461538,4127.307692
4118.076923,4154.74359,4132.051282,4389.102564,4154.487179,4125.641025,4123.205128,4124.871795,4189.871795,4134.102564,4107.051282,4111.923077,4126.025641,4128.076923
4100.384615,4138.717949,4124.871795,4370.128205,4141.794872,4111.410256,4112.692307,4113.717948,4172.179487,4112.435897,4095.641025,4102.307692,4109.615384,4123.717948
4097.179487,4133.333333,4126.282051,4360.512821,4137.435897,4108.333333,4109.358974,4107.435897,4163.333333,4101.794871,4090.76923,4098.205128,4105.25641,4125.641025
4102.179487,4134.358974,4128.717948,4346.666667,4136.153846,4113.846154,4112.564102,4110.384615,4162.307692,4101.410256,4094.871795,4103.333333,4111.025641,4123.846154
4099.102564,4131.153846,4125.128205,4324.615385,4136.153846,4110.641025,4113.461538,4118.205128,4164.230769,4097.051282,4087.179487,4109.743589,4110.51282,4122.435897
4097.179487,4134.615384,4122.948718,4305.384616,4138.846154,4109.487179,4113.589743,4116.666666,4163.205128,4093.333333,4074.102564,4113.076923,4104.615384,4124.743589
4081.794871,4124.230769,4101.410256,4270.897436,4120,4096.025641,4089.230769,4090.128205,4145.384615,4078.333333,4058.589743,4095.51282,4088.846154,4122.179487
4067.051282,4108.974359,4078.846154,4235.769231,4104.102564,4084.871795,4074.230769,4082.564102,4137.948718,4065.128205,4047.435897,4076.410256,4077.051282,4121.153846
4066.282051,4112.051282,4080.25641,4221.153846,4113.205128,4089.230769,4083.333333,4097.692307,4143.589743,4070.641025,4049.358974,4079.358974,4078.461538,4121.153846
4057.948718,4110.128205,4080.384615,4202.051282,4109.871795,4081.666666,4074.358974,4087.692307,4136.794872,4072.435897,4050.76923,4077.307692,4077.051282,4122.435897
4052.948718,4097.179487,4076.794871,4178.461538,4097.051282,4072.307692,4064.615384,4079.358974,4135.641025,4072.564102,4055.76923,4070,4079.358974,4123.333333
4061.794871,4098.076923,4083.589743,4173.461538,4100.897436,4077.435897,4073.974359,4091.794871,4145.641025,4080.76923,4068.589743,4074.230769,4087.435897,4124.102564
4060.25641,4103.076923,4084.743589,4163.333333,4098.589743,4073.589743,4070.897436,4088.974359,4137.564102,4077.820512,4067.692307,4067.692307,4082.307692,4126.794872
4046.794871,4092.307692,4074.871795,4133.461538,4087.435897,4062.948718,4058.974359,4073.846154,4120,4064.230769,4050.897435,4050,4070.25641,4124.615384
4045.641025,4085.384615,4074.871795,4117.564102,4090.51282,4072.692307,4067.051282,4074.358974,4118.205128,4061.153846,4047.179487,4047.564102,4071.538461,4125.128205
4048.589743,4085.76923,4077.948718,4110.769231,4090.897436,4080.51282,4074.743589,4076.923077,4119.871795,4060,4052.307692,4051.025641,4074.615384,4127.051282
4043.461538,4078.205128,4074.743589,4093.846154,4078.717948,4066.153846,4063.717948,4072.051282,4117.179487,4052.564102,4051.410256,4047.692307,4066.410256,4122.948718
4045.25641,4079.230769,4085.25641,4089.743589,4079.871795,4057.051282,4054.871794,4068.846153,4115.384615,4054.487179,4056.666666,4051.282051,4065,4121.794872
4050.641025,4087.948718,4101.794871,4090.897436,4091.923077,4066.923077,4058.717948,4066.153846,4110.897436,4057.948718,4063.717948,4051.666666,4072.179487,4121.153846
4047.435897,4085,4102.179487,4075.641025,4092.435897,4076.538461,4065.51282,4065.641025,4106.666666,4052.051282,4061.538461,4042.948718,4071.923077,4124.487179
4045.25641,4083.461538,4098.076923,4061.410256,4090.641025,4074.615384,4068.076923,4072.564102,4111.153846,4052.820512,4063.205128,4043.589743,4067.692307,4129.871795
4052.948718,4095.641025,4102.564102,4057.692307,4102.179487,4080.25641,4073.974359,4082.051282,4116.923077,4062.820512,4070,4052.051282,4070.51282,4125
4057.051282,4099.487179,4100.128205,4042.820512,4103.589743,4080.76923,4071.153846,4081.923077,4113.589743,4062.692307,4058.846153,4054.615384,4071.153846,4122.692307
4061.410256,4099.487179,4097.564102,4028.461538,4101.410256,4076.282051,4070.641025,4083.333333,4116.794872,4067.435897,4051.794871,4061.666666,4077.692307,4126.410256
4068.974359,4108.461538,4104.102564,4028.076923,4112.307692,4091.794871,4087.692307,4091.410256,4127.435897,4080.897436,4062.820512,4073.205128,4089.102564,4125.51282
4054.871794,4095.76923,4088.846154,4012.179487,4102.051282,4084.871795,4076.153846,4078.717948,4116.153846,4071.025641,4058.076923,4062.692307,4078.205128,4121.666666
4037.179487,4077.564102,4073.076923,3993.076923,4079.358974,4053.717948,4044.230769,4053.589743,4097.307692,4057.307692,4047.051282,4049.871794,4062.307692,4121.923077
4044.871794,4089.743589,4092.179487,3999.487179,4080.76923,4053.846153,4043.589743,4051.410256,4096.410256,4063.589743,4058.076923,4062.051282,4065.128205,4125
4054.230769,4100.25641,4115.128205,4009.358974,4090,4065.384615,4054.102564,4061.794871,4103.076923,4074.102564,4076.794871,4076.794871,4073.589743,4123.333333
4051.025641,4089.358974,4117.179487,4006.025641,4083.846154,4055.128205,4051.538461,4064.743589,4103.717948,4078.333333,4084.871795,4075.76923,4078.974359,4124.615384
4047.051282,4080.25641,4109.743589,3998.333333,4074.743589,4052.307692,4053.205128,4065.128205,4098.717948,4071.025641,4078.333333,4066.153846,4074.871795,4128.846154
4046.923077,4079.358974,4105.25641,3994.871794,4075.897436,4060.641025,4058.333333,4065.641025,4098.076923,4062.179487,4064.871794,4060.897435,4064.743589,4125.641025
4060,4081.794871,4111.538461,4000.128205,4091.410256,4069.871795,4072.435897,4081.666666,4113.589743,4078.589743,4071.025641,4072.692307,4074.615384,4124.743589
4070.897436,4086.923077,4112.435897,4001.794871,4103.846154,4082.307692,4089.871795,4100.384615,4125.769231,4096.666666,4083.589743,4085.897436,4091.153846,4128.076923
4051.794871,4083.076923,4087.948718,3982.564102,4086.794871,4070.641025,4067.820512,4077.179487,4106.538461,4072.692307,4063.846153,4068.974359,4076.666666,4126.538461
4039.871794,4082.435897,4072.179487,3970.641025,4075.25641,4054.743589,4045.76923,4051.025641,4089.102564,4051.410256,4038.846153,4050.25641,4062.820512,4128.589743
4051.923077,4089.743589,4077.692307,3977.692307,4084.743589,4064.102564,4062.564102,4063.717948,4094.871795,4060.897435,4036.538461,4054.102564,4069.102564,4130.25641
4044.743589,4080.897436,4068.846153,3971.794871,4077.179487,4060.51282,4058.974359,4066.282051,4088.589743,4054.358974,4031.794871,4050.897435,4063.205128,4121.538461
4030.897435,4078.333333,4064.615384,3961.923076,4065.76923,4051.923077,4044.230769,4053.205128,4082.051282,4043.846153,4029.615384,4043.846153,4058.076923,4120.641025
4044.871794,4098.717948,4085.51282,3975.897435,4080.641025,4067.307692,4063.333333,4066.282051,4097.564102,4062.179487,4052.692307,4058.846153,4073.974359,4127.692307
4058.717948,4109.230769,4097.564102,3989.999999,4092.692307,4072.948718,4070,4071.538461,4097.948718,4069.743589,4066.282051,4069.743589,4077.820512,4127.179487
4059.615384,4110.51282,4099.871795,3988.333333,4087.948718,4064.743589,4057.179487,4057.820512,4084.871795,4061.153846,4059.102564,4064.615384,4069.871795,4122.564102
4062.692307,4112.435897,4106.794872,3985.51282,4086.538461,4070.641025,4067.692307,4067.564102,4092.051282,4069.615384,4061.153846,4065.51282,4075.51282,4120.769231
4052.692307,4099.615384,4099.102564,3978.589743,4079.487179,4067.179487,4067.692307,4073.461538,4090.76923,4067.948718,4057.307692,4058.333333,4072.307692,4122.564102
4037.051282,4086.153846,4086.923077,3967.692307,4068.846153,4051.794871,4047.307692,4056.282051,4075.384615,4047.948718,4041.410256,4040.897435,4055.641025,4124.487179
4033.589743,4082.948718,4084.743589,3959.102563,4064.358974,4049.615384,4045.76923,4053.461538,4073.589743,4039.230769,4031.153846,4036.794871,4050.384615,4123.974359
4041.923077,4081.410256,4088.846154,3960.641025,4064.871794,4054.487179,4057.307692,4067.820512,4080.128205,4047.435897,4034.102564,4048.205128,4059.615384,4123.076923
4048.461538,4081.794871,4096.025641,3966.666666,4068.974359,4053.846153,4055.641025,4067.692307,4080,4057.948718,4042.307692,4056.153846,4065.897435,4122.820513
4046.410256,4086.923077,4097.820512,3961.794871,4073.974359,4055.641025,4049.358974,4063.589743,4081.153846,4060.51282,4045,4057.564102,4066.923077,4127.435897
4053.333333,4095.384615,4096.410256,3958.461538,4081.923077,4066.794871,4062.179487,4077.179487,4089.615384,4063.333333,4046.923077,4064.615384,4074.358974,4127.179487
4053.333333,4095.384615,4096.410256,3958.461538,4081.923077,4066.794871,4062.179487,4077.179487,4089.615384,4063.333333,4046.923077,4064.615384,4074.358974,4127.179487
4063.076923,4100.25641,4098.333333,3962.820512,4084.487179,4072.692307,4073.974359,4077.564102,4090.76923,4067.435897,4046.923077,4067.307692,4078.333333,4122.435897
4057.692307,4095.51282,4093.717948,3960.384615,4076.538461,4064.871794,4061.282051,4063.974359,4082.179487,4064.230769,4038.717948,4058.846153,4071.153846,4122.948718
4042.820512,4085.51282,4080.384615,3950.384615,4065.51282,4051.666666,4045.128205,4057.051282,4071.410256,4052.564102,4024.102564,4050.128205,4062.948718,4122.179487
4039.230769,4078.461538,4075.25641,3945.76923,4060.25641,4045.128205,4043.717948,4051.025641,4062.051282,4044.615384,4022.179487,4046.923077,4060.641025,4123.461538
4050.51282,4078.333333,4082.435897,3949.743589,4063.461538,4047.307692,4045.25641,4049.743589,4063.333333,4048.076923,4037.564102,4050.51282,4065,4123.717948
4059.102564,4085.76923,4091.538461,3958.846153,4065,4046.410256,4042.179487,4055.51282,4069.230769,4055.641025,4047.435897,4058.461538,4073.717948,4121.025641
4064.743589,4091.794871,4103.205128,3965.897435,4067.179487,4046.923077,4045.51282,4057.564102,4072.051282,4062.820512,4050.25641,4066.410256,4081.538461,4123.846154
4068.846153,4085.51282,4109.615384,3964.358974,4067.820512,4051.923077,4052.435897,4059.102564,4077.307692,4068.717948,4051.923077,4067.692307,4082.692307,4125.51282
4063.076923,4072.179487,4102.692307,3961.538461,4056.282051,4050.51282,4051.153846,4061.538461,4079.743589,4066.538461,4048.205128,4060.25641,4075.384615,4125.25641
4046.282051,4058.205128,4085.51282,3957.820512,4042.051282,4040.51282,4037.564102,4048.205128,4063.974359,4048.205128,4034.230769,4044.358974,4062.692307,4124.615384
4045.25641,4059.230769,4079.743589,3957.692307,4051.282051,4043.974359,4035.25641,4044.230769,4060.25641,4043.974359,4030.76923,4040.51282,4062.179487,4124.358974
4053.717948,4067.948718,4081.282051,3963.461538,4066.923077,4063.205128,4053.846153,4065.897435,4079.871795,4058.589743,4038.846153,4047.820512,4069.487179,4124.102564
4031.923076,4056.282051,4059.743589,3956.538461,4053.589743,4059.871794,4048.846153,4061.794871,4076.025641,4046.923077,4024.102564,4031.923076,4053.461538,4122.692307
4008.333333,4041.538461,4038.589743,3946.794871,4037.435897,4039.743589,4023.076923,4038.974359,4054.615384,4022.307692,4002.435897,4011.282051,4033.205128,4123.717948
4022.820512,4050.641025,4051.538461,3961.02564,4050.897435,4044.102564,4028.205128,4045.641025,4056.410256,4029.102564,4011.282051,4020.76923,4045,4122.564102
4043.846153,4066.923077,4075.51282,3984.358974,4068.461538,4060,4048.205128,4058.974359,4069.230769,4047.948718,4031.666666,4038.974359,4066.153846,4122.692307
4039.743589,4069.230769,4078.974359,3988.846153,4065.76923,4055.384615,4043.974359,4051.025641,4067.948718,4047.435897,4030,4040.641025,4065.897435,4125.769231
4031.282051,4068.333333,4075.641025,3986.282051,4055.76923,4042.692307,4029.102564,4042.307692,4060.76923,4042.692307,4019.358974,4038.846153,4056.282051,4121.923077
4044.615384,4078.333333,4086.794871,3997.307692,4059.871794,4045.76923,4034.871794,4050.128205,4068.589743,4048.846153,4025,4048.333333,4063.846153,4121.282051
4059.743589,4088.076923,4092.051282,4006.923076,4070.897436,4062.692307,4059.615384,4067.820512,4082.564102,4057.820512,4034.487179,4056.410256,4077.307692,4126.923077
4056.410256,4086.923077,4080.384615,3996.794871,4068.589743,4071.025641,4066.410256,4075.384615,4085.641025,4059.743589,4027.692307,4053.076923,4073.846154,4127.820513
4051.282051,4082.307692,4073.974359,3986.794871,4059.358974,4056.923077,4045.384615,4065.76923,4081.666666,4059.487179,4017.820512,4049.743589,4068.589743,4125.25641
4050.128205,4076.794871,4076.538461,3983.076923,4057.307692,4039.487179,4028.461538,4052.179487,4074.487179,4056.282051,4018.333333,4052.307692,4067.179487,4123.974359
4038.974359,4063.076923,4072.051282,3972.564102,4056.538461,4039.871794,4025.641025,4044.615384,4063.589743,4039.743589,4015.641025,4050.51282,4054.871794,4123.974359
4029.487179,4053.333333,4069.487179,3967.435897,4052.051282,4041.923077,4019.871794,4042.948718,4062.435897,4034.743589,4011.666666,4047.051282,4047.179487,4123.974359
4029.743589,4051.410256,4072.820512,3965.76923,4051.410256,4033.717948,4012.564102,4039.358974,4063.461538,4044.102564,4016.666666,4043.333333,4053.717948,4124.871795
4027.692307,4045.25641,4066.025641,3952.179487,4053.076923,4036.538461,4020.51282,4033.589743,4054.615384,4039.102564,4017.820512,4033.846153,4053.076923,4126.282051
4026.282051,4045,4061.025641,3944.358974,4054.102564,4048.461538,4032.820512,4041.025641,4058.076923,4035.128205,4014.615384,4030,4050.51282,4126.282051
4035.76923,4059.487179,4070.25641,3952.179487,4059.743589,4049.102564,4035.897435,4055.51282,4071.153846,4053.333333,4021.410256,4038.589743,4061.153846,4126.538461
4048.461538,4071.282051,4079.230769,3958.589743,4068.974359,4052.307692,4044.487179,4058.589743,4072.435897,4065.128205,4035.25641,4048.846153,4068.461538,4127.692307
4055.897435,4072.307692,4080.897436,3961.410256,4075.76923,4065.51282,4059.487179,4063.974359,4077.820512,4064.871794,4042.820512,4057.435897,4074.230769,4125.897436
4056.794871,4068.846153,4077.948718,3963.589743,4072.307692,4063.333333,4058.589743,4073.589743,4086.666666,4064.102564,4039.615384,4060,4079.102564,4122.948718
4049.871794,4064.487179,4072.179487,3957.948717,4060.25641,4045.76923,4039.871794,4062.307692,4073.717948,4051.666666,4032.564102,4051.923077,4066.923077,4124.102564
4037.948718,4057.307692,4065.76923,3951.923076,4051.666666,4044.102564,4033.717948,4045.76923,4058.333333,4040.76923,4025.641025,4041.153846,4053.333333,4124.743589
4027.179487,4047.820512,4059.615384,3950.76923,4047.564102,4046.282051,4032.820512,4041.153846,4059.102564,4041.538461,4015.641025,4032.564102,4050.25641,4125.25641
4036.794871,4052.692307,4065.641025,3963.076922,4053.974359,4043.076923,4035.25641,4049.743589,4067.948718,4050.51282,4021.538461,4037.179487,4057.179487,4123.076923
4054.102564,4069.743589,4078.846154,3983.846153,4067.307692,4050.25641,4047.692307,4066.538461,4078.461538,4067.820512,4043.076923,4054.743589,4071.153846,4123.205128
4047.820512,4071.410256,4074.871795,3985.897435,4069.615384,4056.410256,4050.76923,4071.282051,4082.179487,4073.717948,4043.717948,4058.333333,4075.384615,4127.051282
4042.179487,4070.641025,4065.76923,3985.128205,4076.923077,4064.230769,4057.051282,4069.871795,4082.820512,4069.102564,4032.435897,4051.538461,4070.897436,4122.435897
4057.307692,4084.871795,4075.384615,4000.384615,4092.692307,4076.666666,4068.076923,4076.538461,4087.179487,4075.25641,4038.205128,4057.948718,4073.846154,4121.666666
4061.025641,4087.307692,4082.435897,4006.025641,4085.76923,4068.205128,4054.871794,4069.871795,4082.948718,4076.538461,4041.282051,4067.435897,4075.76923,4125.384615
4047.564102,4072.948718,4071.666666,3996.666666,4067.179487,4052.307692,4038.589743,4050.897435,4071.410256,4063.717948,4031.282051,4062.692307,4067.051282,4123.205128
4044.743589,4069.230769,4066.923077,3998.205128,4065.384615,4054.230769,4042.564102,4046.410256,4063.589743,4060.128205,4029.743589,4058.205128,4066.794871,4121.282051
4053.205128,4074.871795,4076.923077,4009.230769,4066.282051,4055.25641,4043.461538,4050.25641,4061.538461,4062.179487,4034.230769,4063.974359,4074.102564,4121.794872
4067.564102,4083.974359,4094.487179,4019.615384,4068.461538,4053.846153,4046.025641,4055.51282,4068.589743,4067.051282,4040.897435,4078.076923,4078.076923,4124.871795
4085.641025,4094.230769,4110.897436,4033.717948,4083.589743,4068.333333,4068.076923,4070.25641,4081.282051,4082.179487,4054.871794,4095,4088.461538,4125.128205
4081.410256,4086.538461,4107.692307,4034.358974,4087.692307,4075.641025,4072.564102,4074.487179,4078.205128,4081.666666,4050.897435,4094.230769,4091.153846,4124.743589
4054.487179,4065,4081.794871,4016.410256,4070.76923,4062.435897,4051.153846,4060.641025,4064.102564,4058.205128,4020.76923,4070.128205,4072.051282,4124.358974
4043.076923,4058.589743,4065,4012.692307,4062.179487,4055.51282,4041.923077,4057.948718,4066.666666,4053.205128,4010.641025,4053.461538,4061.025641,4120.128205
4057.179487,4073.205128,4071.538461,4035,4075.384615,4069.230769,4059.487179,4070.128205,4082.820512,4074.871795,4031.666666,4059.615384,4076.282051,4122.692307
4063.974359,4081.025641,4074.615384,4055.25641,4086.153846,4080.128205,4074.615384,4078.205128,4091.666666,4087.435897,4041.410256,4065.25641,4084.615384,4127.051282
4054.230769,4072.692307,4063.974359,4065.128205,4083.589743,4076.153846,4071.538461,4080.384615,4090.76923,4081.538461,4031.282051,4057.435897,4073.076923,4122.435897
4047.051282,4066.538461,4054.487179,4074.743589,4079.102564,4073.589743,4066.025641,4076.923077,4085.641025,4078.205128,4027.948717,4047.307692,4069.487179,4122.179487
4046.538461,4067.435897,4056.153846,4088.205128,4076.923077,4066.794871,4057.435897,4066.282051,4076.666666,4078.205128,4032.435897,4046.410256,4071.025641,4126.410256
4057.307692,4074.615384,4071.923077,4109.743589,4080.128205,4054.871794,4048.461538,4058.974359,4074.487179,4075.897436,4044.487179,4063.717948,4072.948718,4125.384615
4079.230769,4088.461538,4093.076923,4133.461538,4091.282051,4066.282051,4062.948718,4070.25641,4084.871795,4085.128205,4067.820512,4088.333333,4087.820512,4121.538461
4088.717948,4095.25641,4102.051282,4144.74359,4096.794871,4082.435897,4079.487179,4080.897436,4088.076923,4092.564102,4080.384615,4095.897436,4096.153846,4122.435897
4089.230769,4093.974359,4102.820513,4144.871795,4092.179487,4078.205128,4073.974359,4078.076923,4085.641025,4083.974359,4076.794871,4096.153846,4089.358974,4125.897436
4098.205128,4100.128205,4108.205128,4145.897436,4093.717948,4076.538461,4071.282051,4076.282051,4088.076923,4080.128205,4074.102564,4105,4088.205128,4125.769231
4107.692307,4106.794872,4110.769231,4146.025641,4102.692307,4089.871795,4086.923077,4083.846154,4091.410256,4081.794871,4071.666666,4108.205128,4094.871795,4123.589743
4108.461538,4106.282051,4109.615384,4143.205128,4108.333333,4101.410256,4101.666666,4101.153846,4101.794871,4082.435897,4069.487179,4107.948718,4100.51282,4120.384615
4107.307692,4109.358974,4109.615384,4142.051282,4111.794872,4107.948718,4104.230769,4107.051282,4103.974359,4085,4070.128205,4114.615384,4098.333333,4119.871795
4099.615384,4107.820513,4101.538461,4136.282051,4108.461538,4098.589743,4089.358974,4086.923077,4084.230769,4076.410256,4061.282051,4104.487179,4083.717948,4123.974359
4089.102564,4101.025641,4091.794871,4128.461538,4102.051282,4082.948718,4077.692307,4071.282051,4079.230769,4069.615384,4053.974359,4086.923077,4076.923077,4124.743589
4084.487179,4100.897436,4092.948718,4123.076923,4098.974359,4082.435897,4081.025641,4077.692307,4090.25641,4080.25641,4059.230769,4088.461538,4085.128205,4124.102564
4081.666666,4100.25641,4096.282051,4118.076923,4095.897436,4081.153846,4073.717948,4078.333333,4086.923077,4083.846154,4062.179487,4089.871795,4085.25641,4125
4088.589743,4102.179487,4104.102564,4120.384615,4096.666666,4076.153846,4066.538461,4076.923077,4090.76923,4089.230769,4073.846154,4094.871795,4087.948718,4123.717948
4096.153846,4106.410256,4111.410256,4125,4098.846154,4081.794871,4076.794871,4088.974359,4104.230769,4104.615384,4089.487179,4108.589743,4099.743589,4124.615384
4088.333333,4098.076923,4103.974359,4116.153846,4093.205128,4086.410256,4082.564102,4091.666666,4102.051282,4103.974359,4085.897436,4105.51282,4099.358974,4124.487179
4081.025641,4091.025641,4091.666666,4104.230769,4087.692307,4083.974359,4079.487179,4087.307692,4098.974359,4096.282051,4080.51282,4096.666666,4094.230769,4123.461538
4088.717948,4102.692307,4093.333333,4106.923077,4093.461538,4086.282051,4085.25641,4088.974359,4099.487179,4100.641025,4086.923077,4104.871795,4098.846154,4127.307692
4104.487179,4119.358974,4108.333333,4113.974359,4105.25641,4101.923077,4103.846154,4101.025641,4105.25641,4110.25641,4095.25641,4120.128205,4108.717948,4128.076923
4111.153846,4120,4113.846154,4105.51282,4106.410256,4106.025641,4109.358974,4112.948718,4116.282051,4110.769231,4100.384615,4123.076923,4113.461538,4123.076923
4099.358974,4108.076923,4103.333333,4086.153846,4092.564102,4079.358974,4083.333333,4093.589743,4103.333333,4089.743589,4093.076923,4110.25641,4101.666666,4121.923077
4091.666666,4105.128205,4106.794872,4083.589743,4091.153846,4065.51282,4064.230769,4070.897436,4085.897436,4077.179487,4090,4101.025641,4090.641025,4125.25641
4107.564102,4114.230769,4126.666666,4092.948718,4109.487179,4090.128205,4084.358974,4087.051282,4098.589743,4098.076923,4105.128205,4109.230769,4100.25641,4124.102564
4114.871795,4116.666666,4131.153846,4086.153846,4113.461538,4099.871795,4097.692307,4100.128205,4108.076923,4109.615384,4113.717948,4112.564102,4107.948718,4119.743589
4115.769231,4123.205128,4133.333333,4082.051282,4113.717948,4090.641025,4096.794871,4096.666666,4104.230769,4105.51282,4115.25641,4114.230769,4110.51282,4123.461538
4134.358974,4137.435897,4145.641025,4091.666666,4129.358974,4102.307692,4110.384615,4108.333333,4112.179487,4113.589743,4118.974359,4126.666666,4118.717948,4126.410256
4138.333333,4137.692307,4139.615384,4087.179487,4133.717948,4112.307692,4115.25641,4113.461538,4117.820513,4119.615384,4114.230769,4125.51282,4118.205128,4119.487179
4125,4129.871795,4129.102564,4077.948718,4127.564102,4106.666666,4108.846154,4105.384615,4114.230769,4121.538461,4112.435897,4117.948718,4115.51282,4119.102564
4127.307692,4131.538461,4134.615384,4082.307692,4133.205128,4105.51282,4108.974359,4105.897436,4114.102564,4128.717948,4122.820513,4124.487179,4123.974359,4121.538461
4137.435897,4135.641025,4137.692307,4083.205128,4141.538461,4112.051282,4114.615384,4111.794872,4118.333333,4133.205128,4131.153846,4129.871795,4129.615384,4120.384615
4123.974359,4126.666666,4124.358974,4069.358974,4131.025641,4106.153846,4108.333333,4103.461538,4113.333333,4122.692307,4124.615384,4117.307692,4115.769231,4124.358974
4101.025641,4110.641025,4105.51282,4053.333333,4111.025641,4087.179487,4089.487179,4085,4094.230769,4100.641025,4103.205128,4096.923077,4095,4124.230769
4103.205128,4111.666666,4105.25641,4057.179487,4113.076923,4087.179487,4088.717948,4084.102564,4090.25641,4093.205128,4096.410256,4091.666666,4093.717948,4122.179487
4112.179487,4120.384615,4118.589743,4071.282051,4124.487179,4101.153846,4101.153846,4096.410256,4101.923077,4100.76923,4112.564102,4097.564102,4105.897436,4123.717948
4101.153846,4107.307692,4111.794872,4064.743589,4106.794872,4091.153846,4088.974359,4088.589743,4092.307692,4093.589743,4107.051282,4088.333333,4098.974359,4123.461538
4091.410256,4093.461538,4094.230769,4056.794871,4088.076923,4076.794871,4074.358974,4075.76923,4078.846154,4080,4087.435897,4077.564102,4084.230769,4121.923077
4101.153846,4106.153846,4102.435897,4073.589743,4106.923077,4095.641025,4095.128205,4093.717948,4096.410256,4090.384615,4096.025641,4090.384615,4093.717948,4121.538461
4101.666666,4113.076923,4109.102564,4086.153846,4118.333333,4103.717948,4104.102564,4106.282051,4110,4105.384615,4106.538461,4097.435897,4102.179487,4120.897436
4097.820512,4109.743589,4101.410256,4089.743589,4109.615384,4089.487179,4093.717948,4103.589743,4107.948718,4109.358974,4102.692307,4094.487179,4102.307692,4121.410256
4106.538461,4111.538461,4105.769231,4097.051282,4112.948718,4095,4100.897436,4105.51282,4112.435897,4112.820513,4106.282051,4098.589743,4107.948718,4124.102564
4110,4111.923077,4113.589743,4099.487179,4117.820513,4102.307692,4101.025641,4097.692307,4108.205128,4112.051282,4108.461538,4097.820512,4107.820513,4125.769231
4106.282051,4109.615384,4112.820513,4104.358974,4113.589743,4090,4084.743589,4087.307692,4098.717948,4105,4103.205128,4093.974359,4102.435897,4122.435897
4095.897436,4105.51282,4107.692307,4110.641025,4106.923077,4076.666666,4076.923077,4082.051282,4096.025641,4090.897436,4098.846154,4091.153846,4096.025641,4120.128205
4089.487179,4104.615384,4109.102564,4113.717948,4107.435897,4084.871795,4088.076923,4082.692307,4096.538461,4091.410256,4103.589743,4088.589743,4097.435897,4121.410256
4097.820512,4110.128205,4117.948718,4120.769231,4115.128205,4097.564102,4099.487179,4093.333333,4102.307692,4108.846154,4111.025641,4093.076923,4104.871795,4121.410256
4112.307692,4115,4126.025641,4131.794872,4120.128205,4099.358974,4105.769231,4109.871795,4112.307692,4115.51282,4112.179487,4103.461538,4110.897436,4122.820513
4117.692307,4115.897436,4126.282051,4138.076923,4119.102564,4096.794871,4106.410256,4110.641025,4115.25641,4113.589743,4106.666666,4107.564102,4111.538461,4120.897436
4117.179487,4118.205128,4123.846154,4140.51282,4119.615384,4095.51282,4100.384615,4096.794871,4103.461538,4115,4103.717948,4105.25641,4111.666666,4119.871795
4126.282051,4128.076923,4133.076923,4152.692307,4130.769231,4106.410256,4108.974359,4106.282051,4105.769231,4120.769231,4115.641025,4109.871795,4121.282051,4123.846154
4133.717948,4129.230769,4138.974359,4162.307692,4137.948718,4113.974359,4116.538461,4120.25641,4122.948718,4127.307692,4124.358974,4113.076923,4125.384615,4123.461538
4123.717948,4119.615384,4128.205128,4152.564102,4128.461538,4107.179487,4102.564102,4102.564102,4117.051282,4125,4112.051282,4102.692307,4112.948718,4120.384615
4116.025641,4115.897436,4121.666666,4145.25641,4122.948718,4097.564102,4092.179487,4086.923077,4098.461538,4117.692307,4103.461538,4096.538461,4107.051282,4121.025641
4126.794872,4122.179487,4132.435897,4158.717949,4137.820513,4104.487179,4103.205128,4102.820513,4107.820513,4127.179487,4119.615384,4108.589743,4121.666666,4126.282051
4122.564102,4120,4129.615384,4160.384615,4140.128205,4112.820513,4104.871795,4106.410256,4116.794872,4134.358974,4124.743589,4108.717948,4122.692307,4126.282051
4106.025641,4111.025641,4115.128205,4145.641025,4124.871795,4105.128205,4094.615384,4092.948718,4104.358974,4121.794872,4106.666666,4096.025641,4107.051282,4122.564102
4114.358974,4114.102564,4120.128205,4144.871795,4125.25641,4103.205128,4101.666666,4102.692307,4106.025641,4122.051282,4101.410256,4101.282051,4108.717948,4124.615384
4127.307692,4120.25641,4127.692307,4143.717949,4132.435897,4110.897436,4111.282051,4115.769231,4113.461538,4133.205128,4108.333333,4109.102564,4116.794872,4124.102564
4127.179487,4122.564102,4125.51282,4133.076923,4134.743589,4116.410256,4115.641025,4115.769231,4112.179487,4134.102564,4115,4105.641025,4122.307692,4122.051282
4123.461538,4118.076923,4119.743589,4119.743589,4131.794872,4113.076923,4119.743589,4117.179487,4115.897436,4131.410256,4112.179487,4099.871795,4123.076923,4124.615384
4110.51282,4101.794871,4107.692307,4097.307692,4116.410256,4100.128205,4108.846154,4109.358974,4106.538461,4120.128205,4097.692307,4090.128205,4110.128205,4123.461538
4101.923077,4095.897436,4101.153846,4079.487179,4108.589743,4088.974359,4092.435897,4097.051282,4089.487179,4105.384615,4090,4088.076923,4101.153846,4123.974359
4120.25641,4116.153846,4117.948718,4082.948718,4128.974359,4100.51282,4103.076923,4103.974359,4099.230769,4118.461538,4103.974359,4106.282051,4115.128205,4127.051282
4136.282051,4129.743589,4133.461538,4080.25641,4142.307692,4118.589743,4118.333333,4113.333333,4113.846154,4138.717949,4121.410256,4121.923077,4130.641025,4123.333333
4126.923077,4116.794872,4125.51282,4055.641025,4130.384615,4107.948718,4102.564102,4099.743589,4100,4129.358974,4120.51282,4117.179487,4128.846154,4124.358974
4122.051282,4113.333333,4123.846154,4040,4129.102564,4093.589743,4088.076923,4088.846154,4087.820512,4122.564102,4117.051282,4112.564102,4126.282051,4127.820513
4135.897436,4127.692307,4137.820513,4034.358974,4139.230769,4101.794871,4097.307692,4096.923077,4093.461538,4135.25641,4122.307692,4120.51282,4128.461538,4123.974359
4144.358974,4131.410256,4144.358974,4017.564102,4136.538461,4109.615384,4104.358974,4102.179487,4094.871795,4133.589743,4122.948718,4124.743589,4125.897436,4122.948718
4143.205128,4128.076923,4142.435897,4001.923076,4129.871795,4104.743589,4103.076923,4108.461538,4101.282051,4132.051282,4121.794872,4121.923077,4125.384615,4125.128205
4143.717949,4130.128205,4145,3992.051282,4133.205128,4109.358974,4112.179487,4117.051282,4114.102564,4147.051282,4130.25641,4126.666666,4133.205128,4123.974359
4139.871795,4128.205128,4145.384615,3970.76923,4131.666666,4117.948718,4118.717948,4112.692307,4109.615384,4145.641025,4135.384615,4131.153846,4136.153846,4123.205128
4133.076923,4119.102564,4136.282051,3941.923076,4120.897436,4115.128205,4117.179487,4113.205128,4103.974359,4131.153846,4126.666666,4124.615384,4131.794872,4125.25641
4134.871795,4116.538461,4128.846154,3926.794871,4122.179487,4110.128205,4120,4125.25641,4111.666666,4131.410256,4123.076923,4121.538461,4134.230769,4124.615384
4139.487179,4121.794872,4130.128205,3918.333333,4131.153846,4108.846154,4117.820513,4122.948718,4112.435897,4137.820513,4130.769231,4121.923077,4138.205128,4122.051282
4132.051282,4115.641025,4125.51282,3901.410256,4127.435897,4107.692307,4110.51282,4112.051282,4103.461538,4130.384615,4129.102564,4113.717948,4128.589743,4125.128205
4119.743589,4103.717948,4114.743589,3888.205127,4126.410256,4113.461538,4115.128205,4116.410256,4105.51282,4125.641025,4119.487179,4106.666666,4118.974359,4126.025641
4117.051282,4104.487179,4112.692307,3889.743589,4132.564102,4117.051282,4119.871795,4119.487179,4109.871795,4130,4117.564102,4104.615384,4120.384615,4122.820513
4124.487179,4113.076923,4117.820513,3896.794871,4130,4105,4108.974359,4112.820513,4106.538461,4132.435897,4121.794872,4104.743589,4125.51282,4121.025641
4132.820513,4118.717948,4121.025641,3901.666666,4131.282051,4101.794871,4107.051282,4115.897436,4110.641025,4139.358974,4129.230769,4111.794872,4129.615384,4118.846154
4129.615384,4118.717948,4120.25641,3900.128204,4136.282051,4112.435897,4113.589743,4114.871795,4114.358974,4142.564102,4132.692307,4112.179487,4128.974359,4120.897436
4118.076923,4110.51282,4111.410256,3894.102563,4123.717948,4108.076923,4103.461538,4102.820513,4104.102564,4132.179487,4123.333333,4099.487179,4121.538461,4122.051282
4106.153846,4096.153846,4095.897436,3892.820512,4107.435897,4091.794871,4094.358974,4102.179487,4102.179487,4123.974359,4108.205128,4090.25641,4113.589743,4119.743589
4107.307692,4091.666666,4095.128205,3900.128204,4106.794872,4091.666666,4101.794871,4114.871795,4114.615384,4132.051282,4106.410256,4097.564102,4114.230769,4122.692307
4118.974359,4097.564102,4107.435897,3909.358974,4111.282051,4106.666666,4112.307692,4116.025641,4112.435897,4132.435897,4110.769231,4106.666666,4117.948718,4123.846154
4127.692307,4105.25641,4117.307692,3923.205128,4118.461538,4114.230769,4118.717948,4108.846154,4102.307692,4123.974359,4113.846154,4111.282051,4120.384615,4120.897436
4131.025641,4107.179487,4121.538461,3936.538461,4119.871795,4102.435897,4114.743589,4110.128205,4108.589743,4125.769231,4117.435897,4119.102564,4122.692307,4121.410256
4127.692307,4101.025641,4118.717948,3939.615384,4108.589743,4087.948718,4101.410256,4107.435897,4108.846154,4120,4111.025641,4120.128205,4117.692307,4125.128205
4124.230769,4100.76923,4117.564102,3943.076922,4107.948718,4094.615384,4096.923077,4095,4093.461538,4103.461538,4100.897436,4109.871795,4109.615384,4125.384615
4119.102564,4103.717948,4118.717948,3948.717948,4116.538461,4104.743589,4100.897436,4088.461538,4089.743589,4095.897436,4100,4100.897436,4104.871795,4121.025641
4117.692307,4104.743589,4115.384615,3955.897435,4120,4106.666666,4103.846154,4096.153846,4099.358974,4101.666666,4105.641025,4102.179487,4108.076923,4121.794872
4119.743589,4104.102564,4109.102564,3961.923076,4122.179487,4105.128205,4103.333333,4105.769231,4108.205128,4110.769231,4110.769231,4103.846154,4115,4122.948718
4119.102564,4101.794871,4108.333333,3959.999999,4123.846154,4102.948718,4100,4108.205128,4115.51282,4117.564102,4115,4105.25641,4120.128205,4121.923077
4122.179487,4104.230769,4106.794872,3956.923076,4126.410256,4110.641025,4108.076923,4116.410256,4123.333333,4126.666666,4115.897436,4107.948718,4120.769231,4124.743589
4119.358974,4105.25641,4095.128205,3958.205128,4128.076923,4116.538461,4121.666666,4121.410256,4127.179487,4134.230769,4113.717948,4101.538461,4117.820513,4121.794872
4119.358974,4105.25641,4095.128205,3958.205128,4128.076923,4116.538461,4121.666666,4121.410256,4127.179487,4134.230769,4113.717948,4101.538461,4117.820513,4121.794872
4102.435897,4091.923077,4080.897436,3954.487179,4119.230769,4107.692307,4111.538461,4108.205128,4117.435897,4126.282051,4105.128205,4086.794871,4109.871795,4120.25641
4098.846154,4086.282051,4085.384615,3956.153846,4116.282051,4107.179487,4103.461538,4105.128205,4115.25641,4121.538461,4098.461538,4086.538461,4109.487179,4125.641025
4121.538461,4104.871795,4110.51282,3976.794871,4131.923077,4127.692307,4125,4126.282051,4133.205128,4143.076923,4111.794872,4106.538461,4124.487179,4125.25641
4131.794872,4109.615384,4118.974359,3983.717948,4133.076923,4131.666666,4130.25641,4137.564102,4146.538461,4156.923077,4125.769231,4114.230769,4132.051282,4122.692307
4127.435897,4098.974359,4117.051282,3979.615384,4125.51282,4120.384615,4118.205128,4127.435897,4143.205128,4146.794872,4127.435897,4114.358974,4129.615384,4123.333333
4133.974359,4101.410256,4126.410256,3990.76923,4127.564102,4120.25641,4123.589743,4120.769231,4136.153846,4138.333333,4129.102564,4124.615384,4128.333333,4123.461538
4135.641025,4102.179487,4126.923077,3998.461538,4116.794872,4115.51282,4123.589743,4120.51282,4132.307692,4133.076923,4126.025641,4125.128205,4123.589743,4123.333333
4138.589743,4103.076923,4128.205128,4005.384615,4112.179487,4115.769231,4120.641025,4126.794872,4138.589743,4132.051282,4119.487179,4126.538461,4126.538461,4125.128205
4155.641025,4119.871795,4145.769231,4025.51282,4134.487179,4139.230769,4142.692307,4141.538461,4149.871795,4141.153846,4121.666666,4144.74359,4138.974359,4126.666666
4157.564102,4122.051282,4142.820513,4038.846153,4140.384615,4139.102564,4141.666666,4136.666666,4142.307692,4136.025641,4119.487179,4144.102564,4136.282051,4124.615384
4141.410256,4107.564102,4119.230769,4045.128205,4129.358974,4114.230769,4112.435897,4112.692307,4125,4116.538461,4106.153846,4123.717948,4122.948718,4125.25641
4138.974359,4113.205128,4120.128205,4070.897436,4139.230769,4127.179487,4120.128205,4110.641025,4126.794872,4119.743589,4105.51282,4124.358974,4126.025641,4128.076923
4139.230769,4120.25641,4125.384615,4096.410256,4145.25641,4141.794872,4131.538461,4120.769231,4137.051282,4135.897436,4112.948718,4130.769231,4131.794872,4123.717948
4128.461538,4109.615384,4111.410256,4105.769231,4134.230769,4120.769231,4112.435897,4109.358974,4133.333333,4130,4111.666666,4120.897436,4124.871795,4121.025641
4129.230769,4115.51282,4113.461538,4129.743589,4143.076923,4125.51282,4121.538461,4108.974359,4133.717948,4127.435897,4115.897436,4118.076923,4126.666666,4124.230769
4136.153846,4128.205128,4127.051282,4151.025641,4150.897436,4143.846154,4140.769231,4123.717948,4142.820513,4141.410256,4124.615384,4123.589743,4132.692307,4125.384615
4134.487179,4122.307692,4124.743589,4151.794872,4137.179487,4128.333333,4126.923077,4124.358974,4144.358974,4146.538461,4126.923077,4123.974359,4132.051282,4125.769231
4135.897436,4121.538461,4120,4157.692307,4136.025641,4120.128205,4125.384615,4126.923077,4149.358974,4147.179487,4132.179487,4126.794872,4134.743589,4123.461538
4133.333333,4120.51282,4113.333333,4157.948718,4137.307692,4133.846154,4140.769231,4135.769231,4157.051282,4144.358974,4131.282051,4121.923077,4134.743589,4122.948718
4131.282051,4112.692307,4106.410256,4144.358974,4126.794872,4137.948718,4142.564102,4138.205128,4156.666666,4138.974359,4122.435897,4114.871795,4132.435897,4125.25641
4134.487179,4112.435897,4102.820513,4135.128205,4120,4128.974359,4133.717948,4129.871795,4147.692307,4134.230769,4114.615384,4113.717948,4131.410256,4122.179487
4133.974359,4113.974359,4098.974359,4126.538461,4124.615384,4123.076923,4127.435897,4124.102564,4142.692307,4126.538461,4109.102564,4112.051282,4123.717948,4120.769231
4136.282051,4117.692307,4102.179487,4112.564102,4138.974359,4134.487179,4134.230769,4130.384615,4145.897436,4121.153846,4110,4113.205128,4120.128205,4125.128205
4147.692307,4134.230769,4118.076923,4105,4155.51282,4153.076923,4148.076923,4136.923077,4149.871795,4128.333333,4120,4124.487179,4135.897436,4125.384615
4151.666666,4140,4128.974359,4088.589743,4158.717949,4147.435897,4142.051282,4128.205128,4146.282051,4135,4126.794872,4133.717948,4143.717949,4125.25641
4147.307692,4130,4129.871795,4062.307692,4154.102564,4133.974359,4130.384615,4124.487179,4141.923077,4133.974359,4126.153846,4133.076923,4135.897436,4126.666666
4154.615384,4137.307692,4137.435897,4047.820512,4156.538461,4139.615384,4133.589743,4131.282051,4147.692307,4142.307692,4133.461538,4139.615384,4142.051282,4125.128205
4163.205128,4147.692307,4140,4025.897435,4153.461538,4139.230769,4132.948718,4131.282051,4155.641025,4148.333333,4140.641025,4147.435897,4152.564102,4121.410256
4164.871795,4144.102564,4135.641025,3989.743589,4151.538461,4135,4133.333333,4134.871795,4160.25641,4146.410256,4141.410256,4150,4151.923077,4121.153846
4169.487179,4143.461538,4141.025641,3958.589743,4157.307692,4142.179487,4141.794872,4136.410256,4160.25641,4148.333333,4144.230769,4160.641025,4151.923077,4123.333333
4176.794872,4147.051282,4149.615384,3929.230769,4155,4142.179487,4143.461538,4134.743589,4160.128205,4156.923077,4150.128205,4172.820513,4157.435897,4121.923077
4179.615384,4145.25641,4146.666666,3899.743589,4148.076923,4132.051282,4140.128205,4146.923077,4169.487179,4164.487179,4154.102564,4168.461538,4159.102564,4122.948718
4175.897436,4143.589743,4142.564102,3877.435897,4150.769231,4137.820513,4148.717949,4158.205128,4176.410256,4162.307692,4152.435897,4157.692307,4157.435897,4123.846154
4174.102564,4145.897436,4146.153846,3860.76923,4157.948718,4150.897436,4161.025641,4151.410256,4171.282051,4160,4148.205128,4160,4155.128205,4121.794872
4172.948718,4143.205128,4143.717949,3849.999999,4151.538461,4144.74359,4156.538461,4144.871795,4164.358974,4156.153846,4144.358974,4159.230769,4153.461538,4123.461538
4169.230769,4139.358974,4138.974359,3847.435897,4144.615384,4140.384615,4147.307692,4146.025641,4161.153846,4145.51282,4139.102564,4148.717949,4150.769231,4123.461538
4163.717949,4139.487179,4135.51282,3844.102563,4148.461538,4145.641025,4146.666666,4138.461538,4155.769231,4133.333333,4128.846154,4139.487179,4143.333333,4124.615384
4162.179487,4145.25641,4134.871795,3845.897435,4155.25641,4148.333333,4149.358974,4135.128205,4151.282051,4132.051282,4130.128205,4144.74359,4142.692307,4125.641025
4166.153846,4151.538461,4136.538461,3856.02564,4158.974359,4146.666666,4146.794872,4142.179487,4150.384615,4137.948718,4143.717949,4156.538461,4148.846154,4121.282051
4162.692307,4150.128205,4129.487179,3856.410256,4155.769231,4143.846154,4145,4144.487179,4152.692307,4138.461538,4137.692307,4152.179487,4145.769231,4121.025641
4154.487179,4141.923077,4121.538461,3850.128204,4150.128205,4143.589743,4146.666666,4145.128205,4158.717949,4139.871795,4123.846154,4137.307692,4141.153846,4123.589743
4154.230769,4136.153846,4127.692307,3852.051281,4153.205128,4148.333333,4152.051282,4156.666666,4166.923077,4153.846154,4134.615384,4134.871795,4150.128205,4123.974359
4164.358974,4142.179487,4139.230769,3853.076922,4163.333333,4152.692307,4153.076923,4165.51282,4174.871795,4180,4156.282051,4148.974359,4165,4122.051282
4166.794872,4147.307692,4137.051282,3834.999999,4162.051282,4147.179487,4141.538461,4155.897436,4175.769231,4188.205128,4160.384615,4153.846154,4166.282051,4121.794872
4151.153846,4137.435897,4126.282051,3801.410255,4148.589743,4138.717949,4132.564102,4145.25641,4168.076923,4173.717949,4154.230769,4139.230769,4157.179487,4125.769231
4116.666666,4138.589743,4134.358974,4538.461539,4126.282051,4131.794872,4131.282051,4133.846154,4148.205128,4128.974359,4121.282051,4200.897436,4126.666666,4126.666666
4121.153846,4144.102564,4144.102564,4549.871796,4131.923077,4136.923077,4130.128205,4135.897436,4152.820513,4133.589743,4129.487179,4208.589744,4134.102564,4129.615384
4113.461538,4133.076923,4146.923077,4548.333334,4123.717948,4118.076923,4108.717948,4118.205128,4137.564102,4119.102564,4126.410256,4209.102564,4127.692307,4126.538461
4111.923077,4133.076923,4158.461538,4553.461539,4111.794872,4106.538461,4098.717948,4110.897436,4131.666666,4113.205128,4127.820513,4213.333333,4125.641025,4127.820513
4126.153846,4146.410256,4186.282051,4571.666667,4114.871795,4115.51282,4111.410256,4128.076923,4147.307692,4127.692307,4144.230769,4235.769231,4137.820513,4129.743589
4135.769231,4154.487179,4210.769231,4581.282052,4117.307692,4117.948718,4118.846154,4132.564102,4145.897436,4127.564102,4155,4253.333333,4142.179487,4125.384615
4139.74359,4163.076923,4226.410256,4589.358975,4111.794872,4112.564102,4111.410256,4121.666666,4133.205128,4115.769231,4161.153846,4259.230769,4138.461538,4122.307692
4142.051282,4165.641025,4237.948718,4600.384616,4106.153846,4110.128205,4102.948718,4117.051282,4135.384615,4117.435897,4165.384615,4263.974359,4139.102564,4128.205128
4140.25641,4155.51282,4243.717949,4603.97436,4102.820513,4108.205128,4101.153846,4117.564102,4139.74359,4122.051282,4163.846154,4269.358974,4140.641025,4131.025641
4144.615384,4154.487179,4250,4611.153847,4104.871795,4116.025641,4109.230769,4124.743589,4140.384615,4121.282051,4166.923077,4274.615385,4141.666666,4127.564102
4153.717949,4162.820513,4255.25641,4627.564103,4111.410256,4127.179487,4120,4137.435897,4145.769231,4128.076923,4178.333333,4278.589744,4147.948718,4124.871795
4149.871795,4167.692307,4254.871795,4642.179488,4118.461538,4123.717948,4120.641025,4136.666666,4150.51282,4135.769231,4181.153846,4277.307692,4152.820513,4124.871795
4150.897436,4171.923077,4257.051282,4661.410257,4130.384615,4121.538461,4124.358974,4134.358974,4154.871795,4139.230769,4181.153846,4279.74359,4157.307692,4127.307692
4161.153846,4171.282051,4256.538462,4676.538462,4139.230769,4130.128205,4133.461538,4140.769231,4157.179487,4141.923077,4184.487179,4280.128205,4160.25641,4127.051282
4151.794872,4160.51282,4242.564103,4670.641027,4131.666666,4131.666666,4130.384615,4139.487179,4152.564102,4141.410256,4177.692308,4262.307692,4154.230769,4127.179487
4136.025641,4152.820513,4227.307692,4662.051283,4123.717948,4124.871795,4122.051282,4134.230769,4150.769231,4137.564102,4171.538461,4245.384615,4145.897436,4126.666666
4132.692307,4150.641025,4218.589744,4663.846155,4125,4114.230769,4114.487179,4128.076923,4148.974359,4130,4170.897436,4238.076923,4140.769231,4124.102564
4130.897436,4143.589743,4210.769231,4662.564103,4122.820513,4107.692307,4105.384615,4116.538461,4135.25641,4118.846154,4162.948718,4231.025641,4134.871795,4124.487179
4130.769231,4140,4203.205128,4660.384616,4114.358974,4112.948718,4106.282051,4114.487179,4127.948718,4113.589743,4153.974359,4228.461538,4131.923077,4127.692307
4139.487179,4142.564102,4201.538461,4668.71795,4114.615384,4115.897436,4113.717948,4128.974359,4143.974359,4126.923077,4157.948718,4231.153846,4139.487179,4130.51282
4141.666666,4141.153846,4200.25641,4681.794873,4118.333333,4109.743589,4112.179487,4139.230769,4154.230769,4139.358974,4165,4230.384615,4146.538461,4128.461538
4132.307692,4130.51282,4187.179487,4688.333334,4109.615384,4112.564102,4112.948718,4130.25641,4135.769231,4124.743589,4156.153846,4220.25641,4140,4125.51282
4126.794872,4118.589743,4174.102564,4695.384616,4099.615384,4116.538461,4114.487179,4116.666666,4119.743589,4104.615384,4139.230769,4208.076923,4129.871795,4130.25641
4125,4117.179487,4171.410256,4714.102565,4100.897436,4106.538461,4105.384615,4116.025641,4126.538461,4109.615384,4138.717949,4204.871795,4130.128205,4130.128205
4121.666666,4123.333333,4169.487179,4735.897437,4106.153846,4105.51282,4105.384615,4128.717948,4140.384615,4126.282051,4154.230769,4207.435897,4139.230769,4124.615384
4124.230769,4130.384615,4171.923077,4754.615386,4114.615384,4121.538461,4124.358974,4142.179487,4150.51282,4136.153846,4165.51282,4207.564103,4142.948718,4127.692307
4125,4133.205128,4173.461538,4770.000001,4123.717948,4126.410256,4129.743589,4143.076923,4152.435897,4137.435897,4158.333333,4201.794872,4136.410256,4127.435897
4117.435897,4131.538461,4164.102564,4776.538463,4119.358974,4116.282051,4116.794872,4131.794872,4145.641025,4132.692307,4144.871795,4191.538461,4129.871795,4127.051282
4111.666666,4124.230769,4154.871795,4780.384617,4112.435897,4114.871795,4112.564102,4121.282051,4137.820513,4125.769231,4140.641025,4181.410256,4125.769231,4133.974359
4102.820513,4114.743589,4147.051282,4789.23077,4116.025641,4117.692307,4111.794872,4114.615384,4129.358974,4113.333333,4134.615384,4173.846154,4116.666666,4130.769231
4098.205128,4118.846154,4138.076923,4802.564104,4121.538461,4116.923077,4111.923077,4120.128205,4131.410256,4106.923077,4129.102564,4171.538461,4112.948718,4126.666666
4106.410256,4125,4138.461538,4817.051283,4122.051282,4116.794872,4119.230769,4131.282051,4139.615384,4114.358974,4133.846154,4176.666667,4119.743589,4129.871795
4103.333333,4112.692307,4137.948718,4823.205129,4109.871795,4104.358974,4110.51282,4123.205128,4127.564102,4107.948718,4127.820513,4174.230769,4115.897436,4128.589743
4083.846154,4096.538461,4122.692307,4820.384617,4091.538461,4086.025641,4088.974359,4105.51282,4109.871795,4087.051282,4107.435897,4160.641025,4102.179487,4127.051282
4087.051282,4106.025641,4122.307692,4833.71795,4095.76923,4091.666666,4096.410256,4109.230769,4114.743589,4090,4111.282051,4162.179487,4108.846154,4130.51282
4106.923077,4118.974359,4141.025641,4857.051283,4110.897436,4108.846154,4116.282051,4126.410256,4128.589743,4106.410256,4130.384615,4175.51282,4123.589743,4131.282051
4098.205128,4102.948718,4141.410256,4851.410258,4102.051282,4110.25641,4112.179487,4126.153846,4127.948718,4101.025641,4120.769231,4169.615384,4113.205128,4127.692307
4078.461538,4085.51282,4122.051282,4834.23077,4087.948718,4106.538461,4101.025641,4110.897436,4115.769231,4088.974359,4100,4154.358974,4094.615384,4128.974359
4087.564102,4096.923077,4120.51282,4843.205129,4102.051282,4118.846154,4113.333333,4118.846154,4123.717948,4102.179487,4107.051282,4160.641025,4103.589743,4133.846154
4107.564102,4114.230769,4138.461538,4859.487181,4121.666666,4136.153846,4135.25641,4146.538461,4148.333333,4124.743589,4124.615384,4177.692308,4121.538461,4131.025641
4098.461538,4102.051282,4135.384615,4849.102565,4108.461538,4123.589743,4123.333333,4139.358974,4142.307692,4114.871795,4110.384615,4171.794872,4111.794872,4126.153846
4079.230769,4082.435897,4118.974359,4837.564104,4090.128205,4093.974359,4095.76923,4108.717948,4117.692307,4094.743589,4090.76923,4154.102564,4098.461538,4129.487179
4091.794871,4095.128205,4128.846154,4857.051283,4107.051282,4104.102564,4114.871795,4123.205128,4128.461538,4111.923077,4111.153846,4162.820513,4117.051282,4130.25641
4116.025641,4122.179487,4153.461538,4884.358976,4132.051282,4133.205128,4147.435897,4157.307692,4152.948718,4142.692307,4141.538461,4185,4141.025641,4129.358974
4114.871795,4122.564102,4156.538461,4888.846155,4128.333333,4121.666666,4129.487179,4146.666666,4147.307692,4142.564102,4141.282051,4184.487179,4137.051282,4128.974359
4096.410256,4102.051282,4140.384615,4871.794873,4107.307692,4094.615384,4099.615384,4120.51282,4129.743589,4120.641025,4123.974359,4166.538461,4120,4124.358974
4090,4099.615384,4136.153846,4864.230771,4102.564102,4096.666666,4103.717948,4122.948718,4125.25641,4108.846154,4114.102564,4158.846154,4112.692307,4126.794872
4092.179487,4108.076923,4139.487179,4867.307694,4111.153846,4108.461538,4115.384615,4128.205128,4124.615384,4108.333333,4108.333333,4161.410256,4111.666666,4129.358974
4083.589743,4100.641025,4127.820513,4860.384617,4106.794872,4105.128205,4110.897436,4115.769231,4115,4098.461538,4096.025641,4152.820513,4101.794871,4124.871795
4076.282051,4094.487179,4118.076923,4857.948719,4098.846154,4102.051282,4105.51282,4110.128205,4108.589743,4083.589743,4091.410256,4143.846154,4091.410256,4126.153846
4083.974359,4102.307692,4123.717948,4858.46154,4108.974359,4112.564102,4116.538461,4124.871795,4118.461538,4086.794871,4102.435897,4147.564102,4096.923077,4130.128205
4098.974359,4110.25641,4130.384615,4856.410258,4123.974359,4123.076923,4134.615384,4142.692307,4133.461538,4106.538461,4113.717948,4156.153846,4111.410256,4126.794872
4104.871795,4113.333333,4135.384615,4870.384617,4126.410256,4122.435897,4136.282051,4144.871795,4135,4112.179487,4117.051282,4159.487179,4113.717948,4125
4098.717948,4113.717948,4139.871795,4895.769232,4126.794872,4118.974359,4121.794872,4132.692307,4122.948718,4098.205128,4110.384615,4155,4101.923077,4127.820513
4093.461538,4115,4140.769231,4910.769232,4129.743589,4117.564102,4112.820513,4121.794872,4114.230769,4088.846154,4094.871795,4149.871795,4093.589743,4126.282051
4101.153846,4125.897436,4147.820513,4929.102566,4134.102564,4115.25641,4114.358974,4123.589743,4122.179487,4095,4088.205128,4149.230769,4095.51282,4125.641025
4110,4136.282051,4155.25641,4951.923078,4140.51282,4113.717948,4115.25641,4123.333333,4125.51282,4098.589743,4087.948718,4147.692307,4096.410256,4129.743589
4098.461538,4125.641025,4141.794872,4948.71795,4133.205128,4107.051282,4105.641025,4108.205128,4108.846154,4086.923077,4070.641025,4135.769231,4087.307692,4130.128205
4083.846154,4111.666666,4126.538461,4940.000001,4118.333333,4100.384615,4093.846154,4092.692307,4097.179487,4076.923077,4056.923077,4125.769231,4080.128205,4128.205128
4092.435897,4121.153846,4135.769231,4951.923078,4127.051282,4106.923077,4103.076923,4107.692307,4114.871795,4089.743589,4073.076923,4133.461538,4090.51282,4127.307692
4115.897436,4141.025641,4156.282051,4972.820514,4152.051282,4124.871795,4132.564102,4143.717949,4141.282051,4117.564102,4097.435897,4149.615384,4108.717948,4126.153846
4110.897436,4131.794872,4148.333333,4966.282053,4142.051282,4120.25641,4127.564102,4135.769231,4129.615384,4110.25641,4087.564102,4140.897436,4100.897436,4126.025641
4078.717948,4103.076923,4121.282051,4937.820514,4109.358974,4093.974359,4090.641025,4097.820512,4097.564102,4076.410256,4059.102564,4116.410256,4076.410256,4127.307692
4075.51282,4104.487179,4122.692307,4933.846155,4113.717948,4090.128205,4089.102564,4099.102564,4096.153846,4077.564102,4060.51282,4116.538461,4075.76923,4129.743589
4097.051282,4124.743589,4140.384615,4944.615386,4136.410256,4104.487179,4112.820513,4120.384615,4109.615384,4094.743589,4078.589743,4131.282051,4085.384615,4128.846154
4101.923077,4122.307692,4141.410256,4940.512822,4138.461538,4113.846154,4122.179487,4124.358974,4111.025641,4093.461538,4080.128205,4135.384615,4086.666666,4125.25641
4095.897436,4115,4132.307692,4926.794873,4135.769231,4122.051282,4127.051282,4130.384615,4114.871795,4090.128205,4073.333333,4133.974359,4087.051282,4125
4100.76923,4123.205128,4134.615384,4918.71795,4146.410256,4132.564102,4138.974359,4147.692307,4126.923077,4099.871795,4076.025641,4139.487179,4089.743589,4126.923077
4102.692307,4126.538461,4143.076923,4912.435899,4153.974359,4133.076923,4141.538461,4148.461538,4132.692307,4108.461538,4078.205128,4147.435897,4090.897436,4128.333333
4095.25641,4120.384615,4139.871795,4907.948719,4150.128205,4132.948718,4138.974359,4140.641025,4134.615384,4107.564102,4071.153846,4148.461538,4092.820512,4127.307692
4079.487179,4107.948718,4122.564102,4895.512822,4142.307692,4128.717948,4128.589743,4127.564102,4123.589743,4093.333333,4055.384615,4135.897436,4081.923077,4127.564102
4068.846153,4097.564102,4115.641025,4880.384617,4137.051282,4120.641025,4116.794872,4118.974359,4114.487179,4082.564102,4047.051282,4128.717948,4072.435897,4132.051282
4085.25641,4110.128205,4136.410256,4891.538463,4145.769231,4130.897436,4130.897436,4140.128205,4132.948718,4102.435897,4065.897435,4148.846154,4093.589743,4128.076923
4092.051282,4116.923077,4141.923077,4896.666668,4145.51282,4127.179487,4127.820513,4139.871795,4132.948718,4110.641025,4074.230769,4159.102564,4105.51282,4124.871795
4069.615384,4095.384615,4121.282051,4876.666668,4121.410256,4100.25641,4095.384615,4101.666666,4103.076923,4082.692307,4053.717948,4143.974359,4086.153846,4133.461538
4075,4097.179487,4129.615384,4877.307694,4118.333333,4100.641025,4099.743589,4105.769231,4106.666666,4082.564102,4056.538461,4149.358974,4087.307692,4130.769231
4113.974359,4129.358974,4165.641025,4902.435899,4147.564102,4129.487179,4137.051282,4150.769231,4139.74359,4118.846154,4093.846154,4176.025641,4116.153846,4122.820513
4120.51282,4132.051282,4167.692307,4904.743591,4153.846154,4132.692307,4141.153846,4153.589743,4144.487179,4122.564102,4101.666666,4173.205128,4116.282051,4127.692307
4094.102564,4110.641025,4137.435897,4880.256412,4133.205128,4116.794872,4121.538461,4127.692307,4130.128205,4093.333333,4071.282051,4149.102564,4089.487179,4131.923077
4088.717948,4106.025641,4126.538461,4860.897437,4127.692307,4119.102564,4122.435897,4126.282051,4128.589743,4089.615384,4066.153846,4147.692307,4089.487179,4130
4103.846154,4117.692307,4134.487179,4855.384617,4140.897436,4132.051282,4134.615384,4138.717949,4137.307692,4111.025641,4091.282051,4159.358974,4110.51282,4130.25641
4100.76923,4117.179487,4126.025641,4847.948719,4143.461538,4130,4131.794872,4138.333333,4138.461538,4113.974359,4087.179487,4152.051282,4106.282051,4131.538461
4064.871794,4086.794871,4092.051282,4814.743591,4118.589743,4099.743589,4096.410256,4107.820513,4112.948718,4080.641025,4042.692307,4117.692307,4069.871795,4128.589743
4042.307692,4063.205128,4076.666666,4785.384617,4097.179487,4078.589743,4064.487179,4081.153846,4093.974359,4057.564102,4026.153846,4095,4055.384615,4129.358974
4064.230769,4082.051282,4104.102564,4793.846155,4114.230769,4098.205128,4080.25641,4095.76923,4109.487179,4080.76923,4057.948718,4112.948718,4081.666666,4127.692307
4093.333333,4109.615384,4133.076923,4804.102565,4141.282051,4127.179487,4117.051282,4127.435897,4137.435897,4117.307692,4090.641025,4143.717949,4107.820513,4123.589743
4088.076923,4103.205128,4124.102564,4775.641027,4130.384615,4117.948718,4111.538461,4132.435897,4146.538461,4119.743589,4088.974359,4146.410256,4106.282051,4131.025641
4068.717948,4089.487179,4101.666666,4739.615386,4108.461538,4093.846154,4081.025641,4111.923077,4130.897436,4098.333333,4065.897435,4123.589743,4091.282051,4132.179487
